%OpenBCI Raw EEG Data
%Number of channels = 8
%Sample Rate = 250 Hz
%Board = OpenBCI_GUI$BoardCytonSerial
Sample Index, EXG Channel 0, EXG Channel 1, EXG Channel 2, EXG Channel 3, EXG Channel 4, EXG Channel 5, EXG Channel 6, EXG Channel 7, Accel Channel 0, Accel Channel 1, Accel Channel 2, Other, Other, Other, Other, Other, Other, Other, Analog Channel 0, Analog Channel 1, Analog Channel 2, Timestamp, Other, Timestamp (Formatted)
0.0, -3756.4565249033603, -1003.9062504656614, 9549.000507474007, -14135.17613830282, -187500.02235174447, -8098.08171964666, -2507.463396485257, -365.8980567333766, 0.506, -0.002, 0.10400000000000001, 192.0, 15.0, 208.0, 255.0, 240.0, 3.0, 64.0, 0.0, 0.0, 0.0, 1.679087130956451E9, 0.0, 2023-03-17 14:05:30.956
1.0, -3680.7735181776907, -911.0347522538606, 9627.321020045403, -14039.823596456481, -187500.02235174447, -8008.272410425236, -2447.0466312225617, -301.5920879354582, 0.506, -0.002, 0.10400000000000001, 192.0, 0.0, 0.0, 0.0, 0.0, 0.0, 0.0, 0.0, 0.0, 0.0, 1.679087130963706E9, 0.0, 2023-03-17 14:05:30.963
2.0, -3726.1252076775086, -933.699421131542, 9622.850671154341, -14100.709748352738, -187500.02235174447, -8016.386093662512, -2480.462489183246, -319.3170212885167, 0.506, -0.002, 0.10400000000000001, 192.0, 0.0, 0.0, 0.0, 0.0, 0.0, 0.0, 0.0, 0.0, 0.0, 1.679087130963719E9, 0.0, 2023-03-17 14:05:30.963
3.0, -3776.483687935315, -1017.0043727164714, 9542.138521926228, -14189.915560473868, -187500.02235174447, -8115.672542532986, -2537.302975333092, -384.27119067563905, 0.506, -0.002, 0.10400000000000001, 192.0, 0.0, 0.0, 0.0, 0.0, 0.0, 0.0, 0.0, 0.0, 0.0, 1.679087130970046E9, 0.0, 2023-03-17 14:05:30.970
4.0, -3769.1523157539746, -1011.8858232362061, 9539.389257358225, -14154.331583301018, -187500.02235174447, -8115.65019078853, -2545.5507690371, -400.40915017237074, 0.506, -0.002, 0.10400000000000001, 192.0, 0.0, 0.0, 0.0, 0.0, 0.0, 0.0, 0.0, 0.0, 0.0, 1.679087130970072E9, 0.0, 2023-03-17 14:05:30.970
5.0, -3710.3225243476063, -942.2601392579245, 9596.252095252526, -14081.554303354538, -187500.02235174447, -8050.07017255666, -2482.384739206402, -380.1137662069519, 0.506, -0.002, 0.10400000000000001, 192.0, 0.0, 0.0, 0.0, 0.0, 0.0, 0.0, 0.0, 0.0, 0.0, 1.679087130978232E9, 0.0, 2023-03-17 14:05:30.978
6.0, -3738.396315383472, -948.4292207275893, 9609.149051803239, -14117.115928782932, -187500.02235174447, -8022.77869257673, -2456.0320324935956, -337.13136161939644, 0.506, -0.002, 0.10400000000000001, 192.0, 0.0, 0.0, 0.0, 0.0, 0.0, 0.0, 0.0, 0.0, 0.0, 1.679087130978252E9, 0.0, 2023-03-17 14:05:30.978
7.0, -3784.7761851282344, -1027.889672266206, 9542.518501581968, -14205.42767112585, -187500.02235174447, -8087.107013119104, -2549.2164551277706, -406.80174908658853, 0.762, -0.004, 0.15, 192.0, 23.0, 208.0, 255.0, 224.0, 4.0, 176.0, 0.0, 0.0, 0.0, 1.67908713098623E9, 0.0, 2023-03-17 14:05:30.986
8.0, -3756.7470975812794, -1010.1870906576027, 9551.906234253196, -14163.316984572051, -187500.02235174447, -8077.451059514411, -2556.883103475941, -373.4752981037257, 0.762, -0.004, 0.15, 192.0, 0.0, 0.0, 0.0, 0.0, 0.0, 0.0, 0.0, 0.0, 0.0, 1.679087130986246E9, 0.0, 2023-03-17 14:05:30.986
9.0, -3672.0339860956656, -914.2757551998801, 9626.561060733922, -14047.892576204846, -187500.02235174447, -8002.863288267052, -2448.231273678693, -278.8156603355003, 0.762, -0.004, 0.15, 192.0, 0.0, 0.0, 0.0, 0.0, 0.0, 0.0, 0.0, 0.0, 0.0, 1.679087130993237E9, 0.0, 2023-03-17 14:05:30.993
10.0, -3689.9600851488217, -911.7053045875198, 9635.76997944951, -14065.550454324539, -187500.02235174447, -8002.952695244872, -2398.923325410286, -277.7651283461009, 0.762, -0.004, 0.15, 192.0, 0.0, 0.0, 0.0, 0.0, 0.0, 0.0, 0.0, 0.0, 0.0, 1.679087130993249E9, 0.0, 2023-03-17 14:05:30.993
11.0, -3751.852065545567, -992.3503985822676, 9573.542722885933, -14166.557987518072, -187500.02235174447, -8091.979693410361, -2491.437195710802, -369.0496527015749, 0.762, -0.004, 0.15, 192.0, 0.0, 0.0, 0.0, 0.0, 0.0, 0.0, 0.0, 0.0, 0.0, 1.679087131001426E9, 0.0, 2023-03-17 14:05:31.001
12.0, -3770.0687372766424, -1026.593271087798, 9534.561280555878, -14188.842676740012, -187500.02235174447, -8122.1545484250255, -2557.330138365047, -422.62678416094593, 0.762, -0.004, 0.15, 192.0, 0.0, 0.0, 0.0, 0.0, 0.0, 0.0, 0.0, 0.0, 0.0, 1.67908713100144E9, 0.0, 2023-03-17 14:05:31.001
13.0, -3707.1932801238636, -948.6527381721423, 9593.502830684523, -14080.034384731578, -187500.02235174447, -8037.553195661688, -2484.619913651933, -330.7164109607233, 0.762, -0.004, 0.15, 192.0, 0.0, 0.0, 0.0, 0.0, 0.0, 0.0, 0.0, 0.0, 0.0, 1.679087131008816E9, 0.0, 2023-03-17 14:05:31.008
14.0, -3691.7035212163355, -907.1231969741818, 9639.368610306814, -14074.446448617751, -187500.02235174447, -7990.01103520525, -2447.828942278498, -297.6805326557795, 0.762, -0.004, 0.15, 192.0, 0.0, 0.0, 0.0, 0.0, 0.0, 0.0, 0.0, 0.0, 0.0, 1.67908713100883E9, 0.0, 2023-03-17 14:05:31.008
15.0, -3743.4031061414607, -966.243561058469, 9605.461013968112, -14165.842731695502, -187500.02235174447, -8050.807780123685, -2528.2505188286923, -353.8057629830555, 0.762, -0.004, 0.15, 192.0, 0.0, 0.0, 0.0, 0.0, 0.0, 0.0, 0.0, 0.0, 0.0, 1.67908713101591E9, 0.0, 2023-03-17 14:05:31.015
16.0, -3766.5818651416143, -1023.6875443086082, 9543.658440549189, -14207.886363015934, -187500.02235174447, -8136.951403254438, -2567.5448855811223, -397.68223734882326, 0.762, -0.004, 0.15, 192.0, 0.0, 0.0, 0.0, 0.0, 0.0, 0.0, 0.0, 0.0, 0.0, 1.679087131023673E9, 0.0, 2023-03-17 14:05:31.023
17.0, -3719.822015741112, -969.5739709823098, 9584.18215324666, -14099.234533218687, -187500.02235174447, -8075.148829835514, -2503.3506755054805, -348.53075129160305, 0.888, -0.004, 0.176, 192.0, 27.0, 192.0, 255.0, 224.0, 5.0, 128.0, 0.0, 0.0, 0.0, 1.679087131023685E9, 0.0, 2023-03-17 14:05:31.023
18.0, -3666.8483813820344, -895.9026212576177, 9656.691212259677, -14027.552488750516, -187500.02235174447, -7980.668006022931, -2421.856215221431, -268.3773956748719, 0.888, -0.004, 0.176, 192.0, 0.0, 0.0, 0.0, 0.0, 0.0, 0.0, 0.0, 0.0, 0.0, 1.679087131030445E9, 0.0, 2023-03-17 14:05:31.030
19.0, -3735.2447194152737, -956.7217179205082, 9613.66410418321, -14145.74851343018, -187500.02235174447, -8031.719390358853, -2482.8094223510534, -340.6852889877903, 0.888, -0.004, 0.176, 192.0, 0.0, 0.0, 0.0, 0.0, 0.0, 0.0, 0.0, 0.0, 0.0, 1.679087131030457E9, 0.0, 2023-03-17 14:05:31.030
20.0, -3782.1386792825083, -1039.601986360787, 9524.88297520673, -14229.72401734877, -187500.02235174447, -8125.730827537875, -2526.9317659058293, -419.7434091262113, 0.888, -0.004, 0.176, 192.0, 0.0, 0.0, 0.0, 0.0, 0.0, 0.0, 0.0, 0.0, 0.0, 1.679087131038547E9, 0.0, 2023-03-17 14:05:31.038
21.0, -3744.6995073198686, -993.3562270827565, 9559.550530856912, -14147.737818686703, -187500.02235174447, -8074.165353079481, -2503.6412481833995, -355.97388219522026, 0.888, -0.004, 0.176, 192.0, 0.0, 0.0, 0.0, 0.0, 0.0, 0.0, 0.0, 0.0, 0.0, 1.679087131038559E9, 0.0, 2023-03-17 14:05:31.038
22.0, -3676.6831489423694, -908.4643016415002, 9636.261717827525, -14057.392067598352, -187500.02235174447, -7988.714634026842, -2442.0621922090286, -277.5192591570925, 0.888, -0.004, 0.176, 192.0, 0.0, 0.0, 0.0, 0.0, 0.0, 0.0, 0.0, 0.0, 0.0, 1.679087131045458E9, 0.0, 2023-03-17 14:05:31.045
23.0, -3732.0707717026203, -951.3125957623239, 9613.57469720539, -14132.493928968184, -187500.02235174447, -8026.265564711758, -2490.565477677045, -310.59984095094694, 0.888, -0.004, 0.176, 192.0, 0.0, 0.0, 0.0, 0.0, 0.0, 0.0, 0.0, 0.0, 0.0, 1.67908713104547E9, 0.0, 2023-03-17 14:05:31.045
24.0, -3767.9676732978432, -1024.179282686625, 9541.467969592568, -14203.99715948071, -187500.02235174447, -8115.65019078853, -2560.4146790998793, -402.42080717334835, 0.888, -0.004, 0.176, 192.0, 0.0, 0.0, 0.0, 0.0, 0.0, 0.0, 0.0, 0.0, 0.0, 1.679087131052966E9, 0.0, 2023-03-17 14:05:31.052
25.0, -3732.1601786804413, -982.9403141665833, 9569.407650161702, -14134.41617899134, -187500.02235174447, -8078.121611848071, -2516.0464663560947, -368.2002864122732, 0.888, -0.004, 0.176, 192.0, 0.0, 0.0, 0.0, 0.0, 0.0, 0.0, 0.0, 0.0, 0.0, 1.679087131052981E9, 0.0, 2023-03-17 14:05:31.052
26.0, -3664.6355586809586, -902.98812424995, 9634.250060826547, -14040.53885227905, -187500.02235174447, -7991.955636972862, -2453.729802814699, -292.4949279421482, 0.888, -0.004, 0.176, 192.0, 0.0, 0.0, 0.0, 0.0, 0.0, 0.0, 0.0, 0.0, 0.0, 1.679087131061137E9, 0.0, 2023-03-17 14:05:31.061
27.0, -3720.8948994749667, -937.856845600229, 9618.648543196743, -14107.236457733687, -187500.02235174447, -8012.027503493728, -2490.520774188134, -341.7805244661003, 0.9480000000000001, -0.006, 0.186, 192.0, 29.0, 160.0, 255.0, 208.0, 5.0, 208.0, 0.0, 0.0, 0.0, 1.679087131061149E9, 0.0, 2023-03-17 14:05:31.061
28.0, -3765.665443618947, -1018.3901808727004, 9546.407705117192, -14192.374252363952, -187500.02235174447, -8103.289676104746, -2560.973472711262, -397.8610513044657, 0.9480000000000001, -0.006, 0.186, 192.0, 0.0, 0.0, 0.0, 0.0, 0.0, 0.0, 0.0, 0.0, 0.0, 1.67908713106908E9, 0.0, 2023-03-17 14:05:31.069
29.0, -3737.457542116349, -993.7362067384967, 9560.93633901314, -14134.37147550243, -187500.02235174447, -8093.544315522232, -2546.2436731152147, -342.29461458857236, 0.9480000000000001, -0.006, 0.186, 192.0, 0.0, 0.0, 0.0, 0.0, 0.0, 0.0, 0.0, 0.0, 0.0, 1.6790871310691E9, 0.0, 2023-03-17 14:05:31.069
30.0, -3673.7103669298135, -915.6168598671985, 9620.369627519802, -14049.501901805628, -187500.02235174447, -8022.845747810095, -2471.5441431455783, -279.2403434801511, 0.9480000000000001, -0.006, 0.186, 192.0, 0.0, 0.0, 0.0, 0.0, 0.0, 0.0, 0.0, 0.0, 0.0, 1.67908713107518E9, 0.0, 2023-03-17 14:05:31.075
31.0, -3692.3293700610843, -911.6829528430645, 9638.34043006187, -14082.001338243645, -187500.02235174447, -8019.627096608531, -2464.749212831165, -284.9847418051651, 0.9480000000000001, -0.006, 0.186, 192.0, 0.0, 0.0, 0.0, 0.0, 0.0, 0.0, 0.0, 0.0, 0.0, 1.679087131082721E9, 0.0, 2023-03-17 14:05:31.082
32.0, -3736.40701012695, -983.9908461559828, 9574.235626964048, -14167.027374151634, -187500.02235174447, -8086.88349567455, -2550.8704842174634, -400.2750397056389, 0.9480000000000001, -0.006, 0.186, 192.0, 0.0, 0.0, 0.0, 0.0, 0.0, 0.0, 0.0, 0.0, 0.0, 1.679087131082777E9, 0.0, 2023-03-17 14:05:31.082
33.0, -3753.751963824268, -1010.6117738022535, 9539.433960847135, -14171.475371298238, -187500.02235174447, -8120.411112357511, -2572.529324594656, -385.7687575541446, 0.9480000000000001, -0.006, 0.186, 192.0, 0.0, 0.0, 0.0, 0.0, 0.0, 0.0, 0.0, 0.0, 0.0, 1.679087131090542E9, 0.0, 2023-03-17 14:05:31.090
34.0, -3692.664646227914, -925.7645518499079, 9615.005208850529, -14072.904178250335, -187500.02235174447, -8032.144073503504, -2493.471204456235, -280.7155586142014, 0.9480000000000001, -0.006, 0.186, 192.0, 0.0, 0.0, 0.0, 0.0, 0.0, 0.0, 0.0, 0.0, 0.0, 1.679087131090563E9, 0.0, 2023-03-17 14:05:31.090
35.0, -3696.7773672076905, -898.7412928034416, 9653.450209313656, -14073.59708232845, -187500.02235174447, -8002.125680700026, -2462.782259319098, -294.0595500540197, 0.9480000000000001, -0.006, 0.186, 192.0, 0.0, 0.0, 0.0, 0.0, 0.0, 0.0, 0.0, 0.0, 0.0, 1.679087131098776E9, 0.0, 2023-03-17 14:05:31.098
36.0, -3768.034728531209, -988.371788069223, 9572.335728685348, -14187.814496495068, -187500.02235174447, -8086.279998574258, -2553.3738795964578, -365.31691137753864, 0.9480000000000001, -0.006, 0.186, 192.0, 0.0, 0.0, 0.0, 0.0, 0.0, 0.0, 0.0, 0.0, 0.0, 1.679087131098791E9, 0.0, 2023-03-17 14:05:31.098
37.0, -3779.9929118147984, -1022.2346809190132, 9529.085103164329, -14204.600656581004, -187500.02235174447, -8140.415923645011, -2600.3795981859685, -391.2225832012395, 0.98, -0.006, 0.196, 192.0, 30.0, 160.0, 255.0, 208.0, 6.0, 32.0, 0.0, 0.0, 0.0, 1.679087131105271E9, 0.0, 2023-03-17 14:05:31.105
38.0, -3719.7102570188354, -948.5856829387765, 9588.585446904355, -14108.510507167639, -187500.02235174447, -8083.486030517344, -2535.9842224102285, -319.7193526887122, 0.98, -0.006, 0.196, 192.0, 0.0, 0.0, 0.0, 0.0, 0.0, 0.0, 0.0, 0.0, 0.0, 1.679087131105285E9, 0.0, 2023-03-17 14:05:31.105
39.0, -3677.2866460426626, -885.2855426413469, 9656.355936092847, -14057.54852980954, -187500.02235174447, -8021.102311742582, -2482.988236306696, -263.0129770055982, 0.98, -0.006, 0.196, 192.0, 0.0, 0.0, 0.0, 0.0, 0.0, 0.0, 0.0, 0.0, 0.0, 1.679087131113306E9, 0.0, 2023-03-17 14:05:31.113
40.0, -3730.3273356351065, -947.9598340940279, 9614.28995302796, -14146.530824486117, -187500.02235174447, -8055.702812159398, -2524.2048530822817, -334.4715040292149, 0.98, -0.006, 0.196, 192.0, 0.0, 0.0, 0.0, 0.0, 0.0, 0.0, 0.0, 0.0, 0.0, 1.679087131113316E9, 0.0, 2023-03-17 14:05:31.113
41.0, -3767.297120964184, -1015.1491779266809, 9539.925699225152, -14204.444194369817, -187500.02235174447, -8125.931993237972, -2587.0579584906054, -412.2332229892282, 0.98, -0.006, 0.196, 192.0, 0.0, 0.0, 0.0, 0.0, 0.0, 0.0, 0.0, 0.0, 0.0, 1.679087131121438E9, 0.0, 2023-03-17 14:05:31.121
42.0, -3709.271992358207, -944.7411828924636, 9595.08980454085, -14106.811774589036, -187500.02235174447, -8069.538541977232, -2514.5936029665, -355.88447521739903, 0.98, -0.006, 0.196, 192.0, 0.0, 0.0, 0.0, 0.0, 0.0, 0.0, 0.0, 0.0, 0.0, 1.679087131121462E9, 0.0, 2023-03-17 14:05:31.121
43.0, -3672.0786895845763, -886.1796124195591, 9649.404543567247, -14058.666117032304, -187500.02235174447, -8008.272410425236, -2442.2857096535813, -265.33755842895016, 0.98, -0.006, 0.196, 192.0, 0.0, 0.0, 0.0, 0.0, 0.0, 0.0, 0.0, 0.0, 0.0, 1.679087131128505E9, 0.0, 2023-03-17 14:05:31.128
44.0, -3747.918158521433, -956.6770144315976, 9595.223915007582, -14163.51815027215, -187500.02235174447, -8072.153696078503, -2500.914335359852, -326.38017253639373, 0.98, -0.006, 0.196, 192.0, 0.0, 0.0, 0.0, 0.0, 0.0, 0.0, 0.0, 0.0, 0.0, 1.679087131128522E9, 0.0, 2023-03-17 14:05:31.128
45.0, -3786.4749177068375, -1032.4941316239992, 9520.569088526856, -14234.730808106759, -187500.02235174447, -8147.590833615164, -2590.768348070186, -423.2079295167839, 0.98, -0.006, 0.196, 192.0, 0.0, 0.0, 0.0, 0.0, 0.0, 0.0, 0.0, 0.0, 0.0, 1.679087131134953E9, 0.0, 2023-03-17 14:05:31.134
46.0, -3751.3156236786394, -989.9811136700051, 9553.6049668318, -14165.440400295307, -187500.02235174447, -8104.608429027609, -2560.7052517777984, -376.626894071924, 0.98, -0.006, 0.196, 192.0, 0.0, 0.0, 0.0, 0.0, 0.0, 0.0, 0.0, 0.0, 0.0, 1.679087131142951E9, 0.0, 2023-03-17 14:05:31.142
47.0, -3698.1855271083746, -922.054162270327, 9611.5183367155, -14096.775841328603, -187500.02235174447, -8028.165462990459, -2495.751082390676, -317.4171230098156, 0.996, -0.006, 0.194, 192.0, 31.0, 32.0, 255.0, 208.0, 6.0, 16.0, 0.0, 0.0, 0.0, 1.679087131143011E9, 0.0, 2023-03-17 14:05:31.143
48.0, -3735.8035130266567, -943.5565404363324, 9610.445452981647, -14149.995344876688, -187500.02235174447, -8035.54153866071, -2503.820062139042, -323.0721143570083, 0.996, -0.006, 0.194, 192.0, 0.0, 0.0, 0.0, 0.0, 0.0, 0.0, 0.0, 0.0, 0.0, 1.679087131150948E9, 0.0, 2023-03-17 14:05:31.150
49.0, -3757.238835959296, -1004.1968231435804, 9550.676888308155, -14210.948552006312, -187500.02235174447, -8103.580248782665, -2580.5983043430215, -390.8873070344099, 0.996, -0.006, 0.194, 192.0, 0.0, 0.0, 0.0, 0.0, 0.0, 0.0, 0.0, 0.0, 0.0, 1.679087131150964E9, 0.0, 2023-03-17 14:05:31.150
50.0, -3735.9376234933884, -983.9684944115276, 9563.484437881045, -14163.205225849775, -187500.02235174447, -8104.787242983251, -2549.842303972519, -378.88442026191, 0.996, -0.006, 0.194, 192.0, 0.0, 0.0, 0.0, 0.0, 0.0, 0.0, 0.0, 0.0, 0.0, 1.679087131157576E9, 0.0, 2023-03-17 14:05:31.157
51.0, -3678.180715820875, -909.2689644418913, 9625.242307811059, -14078.939149253269, -187500.02235174447, -8065.425820997456, -2485.558686919056, -289.8127186075114, 0.996, -0.006, 0.194, 192.0, 0.0, 0.0, 0.0, 0.0, 0.0, 0.0, 0.0, 0.0, 0.0, 1.679087131157593E9, 0.0, 2023-03-17 14:05:31.157
52.0, -3716.40219883945, -920.7130576030086, 9629.422084024201, -14127.397731232373, -187500.02235174447, -8052.841788869118, -2510.3467715199913, -282.8836778263662, 0.996, -0.006, 0.194, 192.0, 0.0, 0.0, 0.0, 0.0, 0.0, 0.0, 0.0, 0.0, 0.0, 1.679087131165691E9, 0.0, 2023-03-17 14:05:31.165
53.0, -3780.5070019372706, -1011.8411197472955, 9542.69731553761, -14237.882404074957, -187500.02235174447, -8129.418865373, -2586.588571857044, -405.21477523026175, 0.996, -0.006, 0.194, 192.0, 0.0, 0.0, 0.0, 0.0, 0.0, 0.0, 0.0, 0.0, 0.0, 1.679087131165708E9, 0.0, 2023-03-17 14:05:31.165
54.0, -3775.0308245457204, -1012.2210994030356, 9533.488396822024, -14211.283828173142, -187500.02235174447, -8130.983487484871, -2602.905345309418, -418.3576009699823, 0.996, -0.006, 0.194, 192.0, 0.0, 0.0, 0.0, 0.0, 0.0, 0.0, 0.0, 0.0, 0.0, 1.679087131173546E9, 0.0, 2023-03-17 14:05:31.173
55.0, -3693.379902050484, -921.0259820253829, 9609.66314192571, -14097.938132040279, -187500.02235174447, -8046.4491899549, -2492.2865620001035, -321.73100968968987, 0.996, -0.006, 0.194, 192.0, 0.0, 0.0, 0.0, 0.0, 0.0, 0.0, 0.0, 0.0, 0.0, 1.67908713117356E9, 0.0, 2023-03-17 14:05:31.173
56.0, -3709.987248180777, -914.8345488112627, 9631.098464858349, -14117.898239838869, -187500.02235174447, -8028.903070557484, -2463.072831997017, -310.8233583955, 0.996, -0.006, 0.194, 192.0, 0.0, 0.0, 0.0, 0.0, 0.0, 0.0, 0.0, 0.0, 0.0, 1.679087131180637E9, 0.0, 2023-03-17 14:05:31.180
57.0, -3773.7344233673125, -1006.2531836334687, 9555.884844766242, -14230.10399700451, -187500.02235174447, -8106.664789517497, -2563.3427576235244, -400.74442633920034, 1.002, -0.004, 0.2, 192.0, 31.0, 80.0, 255.0, 224.0, 6.0, 64.0, 0.0, 0.0, 0.0, 1.679087131180648E9, 0.0, 2023-03-17 14:05:31.180
58.0, -3757.261187703751, -1003.8838987212062, 9551.660365064188, -14209.160412449886, -187500.02235174447, -8128.748313039341, -2570.607074571499, -374.0564434595637, 1.002, -0.004, 0.2, 192.0, 0.0, 0.0, 0.0, 0.0, 0.0, 0.0, 0.0, 0.0, 0.0, 1.679087131188352E9, 0.0, 2023-03-17 14:05:31.188
59.0, -3682.4275472673835, -912.1523394766259, 9624.5717554774, -14098.631036118393, -187500.02235174447, -8042.202358508392, -2489.11261428745, -275.4181951782936, 1.002, -0.004, 0.2, 192.0, 0.0, 0.0, 0.0, 0.0, 0.0, 0.0, 0.0, 0.0, 0.0, 1.679087131188373E9, 0.0, 2023-03-17 14:05:31.188
60.0, -3699.1690038644083, -905.5585748623104, 9636.19466259416, -14116.55713517155, -187500.02235174447, -8024.030390266227, -2477.4450036817793, -270.9925497761428, 1.002, -0.004, 0.2, 192.0, 0.0, 0.0, 0.0, 0.0, 0.0, 0.0, 0.0, 0.0, 0.0, 1.679087131195235E9, 0.0, 2023-03-17 14:05:31.195
61.0, -3764.5478563961815, -988.3270845803124, 9571.888693796242, -14223.063197501087, -187500.02235174447, -8105.994237183838, -2561.822839000564, -363.7075857767565, 1.002, -0.004, 0.2, 192.0, 0.0, 0.0, 0.0, 0.0, 0.0, 0.0, 0.0, 0.0, 0.0, 1.679087131195255E9, 0.0, 2023-03-17 14:05:31.195
62.0, -3772.214504744352, -1018.2784221504238, 9542.518501581968, -14237.413017441395, -187500.02235174447, -8139.27598467779, -2591.2377347037477, -408.9028130653874, 1.002, -0.004, 0.2, 192.0, 0.0, 0.0, 0.0, 0.0, 0.0, 0.0, 0.0, 0.0, 0.0, 1.679087131203203E9, 0.0, 2023-03-17 14:05:31.203
63.0, -3719.844367485567, -951.9831480959831, 9594.732176629564, -14142.865138395446, -187500.02235174447, -8064.26353028578, -2543.6955742473097, -355.63860602839065, 1.002, -0.004, 0.2, 192.0, 0.0, 0.0, 0.0, 0.0, 0.0, 0.0, 0.0, 0.0, 0.0, 1.679087131210436E9, 0.0, 2023-03-17 14:05:31.210
64.0, -3700.666570742914, -909.2242609529807, 9632.797197436952, -14115.238382248686, -187500.02235174447, -8027.830186823629, -2496.3769312354248, -292.5396314310588, 1.002, -0.004, 0.2, 192.0, 0.0, 0.0, 0.0, 0.0, 0.0, 0.0, 0.0, 0.0, 0.0, 1.679087131210453E9, 0.0, 2023-03-17 14:05:31.210
65.0, -3766.2912924636953, -981.889782177184, 9581.209371234105, -14219.643380599426, -187500.02235174447, -8084.670672973475, -2524.5401292491115, -348.6201582694243, 1.002, -0.004, 0.2, 192.0, 0.0, 0.0, 0.0, 0.0, 0.0, 0.0, 0.0, 0.0, 0.0, 1.679087131217928E9, 0.0, 2023-03-17 14:05:31.217
66.0, -3786.0278828177316, -1036.3162799258566, 9526.045265918407, -14260.34590725254, -187500.02235174447, -8162.946482055961, -2614.192976259348, -397.59283037100204, 1.002, -0.004, 0.2, 192.0, 0.0, 0.0, 0.0, 0.0, 0.0, 0.0, 0.0, 0.0, 0.0, 1.679087131217974E9, 0.0, 2023-03-17 14:05:31.217
67.0, -3725.298193132662, -962.7119854345304, 9585.053871280417, -14159.964222903756, -187500.02235174447, -8099.646341758531, -2527.6693734728547, -321.68630620077926, 1.01, -0.002, 0.202, 192.0, 31.0, 144.0, 255.0, 240.0, 6.0, 80.0, 0.0, 0.0, 0.0, 1.679087131225868E9, 0.0, 2023-03-17 14:05:31.225
68.0, -3685.1991635798413, -902.7199033164864, 9634.540633504466, -14105.761242599636, -187500.02235174447, -8017.034294251716, -2466.2467797096706, -277.921590557288, 1.01, -0.002, 0.202, 192.0, 0.0, 0.0, 0.0, 0.0, 0.0, 0.0, 0.0, 0.0, 0.0, 1.679087131225885E9, 0.0, 2023-03-17 14:05:31.225
69.0, -3746.532350365204, -959.0015958549495, 9597.302627241925, -14196.576380321549, -187500.02235174447, -8052.752381891297, -2555.005556941695, -338.9865564091869, 1.01, -0.002, 0.202, 192.0, 0.0, 0.0, 0.0, 0.0, 0.0, 0.0, 0.0, 0.0, 0.0, 1.679087131233867E9, 0.0, 2023-03-17 14:05:31.233
70.0, -3772.013339044254, -1022.0558669633707, 9539.7021817806, -14255.361468239007, -187500.02235174447, -8125.686124048963, -2577.066728719083, -415.45187419079235, 1.01, -0.002, 0.202, 192.0, 0.0, 0.0, 0.0, 0.0, 0.0, 0.0, 0.0, 0.0, 0.0, 1.679087131233883E9, 0.0, 2023-03-17 14:05:31.233
71.0, -3739.5809578396033, -978.8946484201728, 9576.806077576408, -14187.501572072695, -187500.02235174447, -8074.2547600573025, -2515.979411122729, -368.04382420108607, 1.01, -0.002, 0.202, 192.0, 0.0, 0.0, 0.0, 0.0, 0.0, 0.0, 0.0, 0.0, 0.0, 1.679087131240563E9, 0.0, 2023-03-17 14:05:31.240
72.0, -3691.1000241160423, -914.633383111165, 9630.830243924886, -14121.832146863002, -187500.02235174447, -8016.162576217959, -2462.469334896724, -288.4492621957376, 1.01, -0.002, 0.202, 192.0, 0.0, 0.0, 0.0, 0.0, 0.0, 0.0, 0.0, 0.0, 0.0, 1.679087131240594E9, 0.0, 2023-03-17 14:05:31.240
73.0, -3734.238890914785, -940.695517146053, 9627.745703190054, -14180.103144657987, -187500.02235174447, -8041.509454430277, -2475.656864125355, -308.23055603868437, 1.01, -0.002, 0.202, 192.0, 0.0, 0.0, 0.0, 0.0, 0.0, 0.0, 0.0, 0.0, 0.0, 1.679087131248651E9, 0.0, 2023-03-17 14:05:31.248
74.0, -3779.2553042477734, -1025.3862768872116, 9541.333859125836, -14261.195273541842, -187500.02235174447, -8145.288603936268, -2594.8810690499627, -439.1000198245072, 1.01, -0.002, 0.202, 192.0, 0.0, 0.0, 0.0, 0.0, 0.0, 0.0, 0.0, 0.0, 0.0, 1.67908713124867E9, 0.0, 2023-03-17 14:05:31.248
75.0, -3748.0299172437094, -990.4281485591113, 9561.741001813532, -14200.33147339004, -187500.02235174447, -8104.876649961073, -2560.0794029330496, -402.2419932177059, 1.01, -0.002, 0.202, 192.0, 0.0, 0.0, 0.0, 0.0, 0.0, 0.0, 0.0, 0.0, 0.0, 1.679087131256453E9, 0.0, 2023-03-17 14:05:31.256
76.0, -3675.0067681082214, -902.4740341274779, 9633.065418370417, -14110.052777535055, -187500.02235174447, -8009.725273814831, -2476.550933903567, -272.93715154375457, 1.01, -0.002, 0.202, 192.0, 0.0, 0.0, 0.0, 0.0, 0.0, 0.0, 0.0, 0.0, 0.0, 1.67908713125647E9, 0.0, 2023-03-17 14:05:31.256
77.0, -3712.8706232155114, -919.439008169056, 9633.780674192987, -14162.8923014274, -187500.02235174447, -8004.182041189914, -2489.224373009726, -256.4192123912826, 0.994, -0.006, 0.20400000000000001, 192.0, 31.0, 16.0, 255.0, 208.0, 6.0, 96.0, 0.0, 0.0, 0.0, 1.679087131263712E9, 0.0, 2023-03-17 14:05:31.263
78.0, -3765.419574429938, -1010.7682360134406, 9547.41353361768, -14263.139875309453, -187500.02235174447, -8124.434426359467, -2548.881178960941, -378.05740571706366, 0.994, -0.006, 0.20400000000000001, 192.0, 0.0, 0.0, 0.0, 0.0, 0.0, 0.0, 0.0, 0.0, 0.0, 1.679087131270225E9, 0.0, 2023-03-17 14:05:31.270
79.0, -3752.0979347345756, -1008.5554133123653, 9546.832388261842, -14232.517985405682, -187500.02235174447, -8119.025304201282, -2590.3213131810803, -385.1205569649407, 0.994, -0.006, 0.20400000000000001, 192.0, 0.0, 0.0, 0.0, 0.0, 0.0, 0.0, 0.0, 0.0, 0.0, 1.679087131270328E9, 0.0, 2023-03-17 14:05:31.270
80.0, -3674.9397128748556, -917.6732203570867, 9623.230650810081, -14119.708731139748, -187500.02235174447, -8037.2179194948585, -2460.7482505736652, -294.21601226520687, 0.994, -0.006, 0.20400000000000001, 192.0, 0.0, 0.0, 0.0, 0.0, 0.0, 0.0, 0.0, 0.0, 0.0, 1.679087131278232E9, 0.0, 2023-03-17 14:05:31.278
81.0, -3681.309960044618, -897.3554846472126, 9654.523093047512, -14124.335542241997, -187500.02235174447, -8034.468654926855, -2434.7084682832324, -255.61454959089156, 0.994, -0.006, 0.20400000000000001, 192.0, 0.0, 0.0, 0.0, 0.0, 0.0, 0.0, 0.0, 0.0, 0.0, 1.679087131278261E9, 0.0, 2023-03-17 14:05:31.278
82.0, -3751.6061963565585, -995.6137532727425, 9567.306586182904, -14241.950421565822, -187500.02235174447, -8139.141874211058, -2559.542961066122, -359.3266438635163, 0.994, -0.006, 0.20400000000000001, 192.0, 0.0, 0.0, 0.0, 0.0, 0.0, 0.0, 0.0, 0.0, 0.0, 1.679087131286085E9, 0.0, 2023-03-17 14:05:31.286
83.0, -3763.765545340246, -1018.4125326171556, 9541.870300992763, -14256.210834528309, -187500.02235174447, -8121.104016435625, -2584.241638689237, -394.77651056963333, 0.994, -0.006, 0.20400000000000001, 192.0, 0.0, 0.0, 0.0, 0.0, 0.0, 0.0, 0.0, 0.0, 0.0, 1.679087131286109E9, 0.0, 2023-03-17 14:05:31.286
84.0, -3696.5762015075925, -935.1522845211368, 9608.813775636409, -14152.364629788952, -187500.02235174447, -8035.16155900497, -2489.134966031905, -339.7018122317567, 0.994, -0.006, 0.20400000000000001, 192.0, 0.0, 0.0, 0.0, 0.0, 0.0, 0.0, 0.0, 0.0, 0.0, 1.679087131292674E9, 0.0, 2023-03-17 14:05:31.292
85.0, -3690.6082857380256, -908.3078394303132, 9636.753456205543, -14141.211109305754, -187500.02235174447, -8010.172308703936, -2466.760869832143, -290.63973315235773, 0.994, -0.006, 0.20400000000000001, 192.0, 0.0, 0.0, 0.0, 0.0, 0.0, 0.0, 0.0, 0.0, 0.0, 1.679087131292714E9, 0.0, 2023-03-17 14:05:31.292
86.0, -3744.0066032417544, -977.2629710749354, 9590.686510883155, -14231.065122016087, -187500.02235174447, -8082.5919607391315, -2540.1416468789157, -356.21975138422863, 0.994, -0.006, 0.20400000000000001, 192.0, 0.0, 0.0, 0.0, 0.0, 0.0, 0.0, 0.0, 0.0, 0.0, 1.679087131300854E9, 0.0, 2023-03-17 14:05:31.300
87.0, -3772.013339044254, -1025.140407698203, 9542.74201902652, -14270.739468424257, -187500.02235174447, -8148.70842083793, -2588.622580602477, -394.2624204471613, 1.006, 0.0, 0.20400000000000001, 192.0, 31.0, 112.0, 0.0, 0.0, 6.0, 96.0, 0.0, 0.0, 0.0, 1.679087131300873E9, 0.0, 2023-03-17 14:05:31.300
88.0, -3706.6344865124806, -942.5954154247542, 9613.03825533846, -14164.345164816996, -187500.02235174447, -8060.016698839271, -2510.614992453455, -308.0740938274972, 1.006, 0.0, 0.20400000000000001, 192.0, 0.0, 0.0, 0.0, 0.0, 0.0, 0.0, 0.0, 0.0, 0.0, 1.679087131308748E9, 0.0, 2023-03-17 14:05:31.308
89.0, -3675.118526830498, -891.7451967889306, 9663.642604785276, -14125.922516098324, -187500.02235174447, -8002.326846400124, -2447.1583899448383, -259.3025874260172, 1.006, 0.0, 0.20400000000000001, 192.0, 0.0, 0.0, 0.0, 0.0, 0.0, 0.0, 0.0, 0.0, 0.0, 1.679087131308788E9, 0.0, 2023-03-17 14:05:31.308
90.0, -3727.5780710671033, -950.5526364508435, 9628.259793312525, -14209.473336872261, -187500.02235174447, -8054.49581795881, -2503.2165650387487, -295.3112477435169, 1.006, 0.0, 0.20400000000000001, 192.0, 0.0, 0.0, 0.0, 0.0, 0.0, 0.0, 0.0, 0.0, 0.0, 1.679087131315829E9, 0.0, 2023-03-17 14:05:31.315
91.0, -3751.270920189729, -1009.6506487906753, 9568.111248983294, -14256.948442095334, -187500.02235174447, -8112.766815753796, -2585.135708467449, -358.45492582975936, 1.006, 0.0, 0.20400000000000001, 192.0, 0.0, 0.0, 0.0, 0.0, 0.0, 0.0, 0.0, 0.0, 0.0, 1.679087131315939E9, 0.0, 2023-03-17 14:05:31.315
92.0, -3714.9046319609442, -963.0025581124495, 9600.074243554383, -14182.919464459357, -187500.02235174447, -8063.660033185486, -2499.886155114908, -328.2800708150948, 1.006, 0.0, 0.20400000000000001, 192.0, 0.0, 0.0, 0.0, 0.0, 0.0, 0.0, 0.0, 0.0, 0.0, 1.679087131322381E9, 0.0, 2023-03-17 14:05:31.322
93.0, -3680.5723524775926, -912.7334848324639, 9641.693191730164, -14133.365647001941, -187500.02235174447, -8016.63196285152, -2453.5286371146008, -273.89827655533276, 1.006, 0.0, 0.20400000000000001, 192.0, 0.0, 0.0, 0.0, 0.0, 0.0, 0.0, 0.0, 0.0, 0.0, 1.679087131330403E9, 0.0, 2023-03-17 14:05:31.330
94.0, -3733.3895246254833, -956.9452353650613, 9617.754473418532, -14211.90967701789, -187500.02235174447, -8054.160541791981, -2494.454681212268, -313.0138293521201, 1.006, 0.0, 0.20400000000000001, 192.0, 0.0, 0.0, 0.0, 0.0, 0.0, 0.0, 0.0, 0.0, 0.0, 1.679087131330467E9, 0.0, 2023-03-17 14:05:31.330
95.0, -3764.749022096279, -1027.7108583105635, 9547.905271995696, -14283.59172148606, -187500.02235174447, -8136.459664876422, -2577.5361153526446, -405.28183046362767, 1.006, 0.0, 0.20400000000000001, 192.0, 0.0, 0.0, 0.0, 0.0, 0.0, 0.0, 0.0, 0.0, 0.0, 1.679087131338431E9, 0.0, 2023-03-17 14:05:31.338
96.0, -3733.9259664924107, -990.5622590258431, 9575.219103720083, -14220.425691655362, -187500.02235174447, -8108.899963963028, -2556.972510453762, -370.79308876908885, 1.006, 0.0, 0.20400000000000001, 192.0, 0.0, 0.0, 0.0, 0.0, 0.0, 0.0, 0.0, 0.0, 0.0, 1.679087131338467E9, 0.0, 2023-03-17 14:05:31.338
97.0, -3661.81923887959, -901.6470195826316, 9655.797142481464, -14122.927382341311, -187500.02235174447, -8006.104291213071, -2429.880491480886, -286.1246807723857, 1.01, -0.004, 0.19, 192.0, 31.0, 144.0, 255.0, 224.0, 5.0, 240.0, 0.0, 0.0, 0.0, 1.679087131345494E9, 0.0, 2023-03-17 14:05:31.345
98.0, -3704.600477767048, -929.4302379405783, 9651.90793894624, -14178.538522546116, -187500.02235174447, -8019.448282652889, -2459.3847941618915, -263.6388258503468, 1.01, -0.004, 0.19, 192.0, 0.0, 0.0, 0.0, 0.0, 0.0, 0.0, 0.0, 0.0, 0.0, 1.679087131345537E9, 0.0, 2023-03-17 14:05:31.345
99.0, -3745.3477079090726, -1008.3318958678122, 9578.191885732638, -14260.100038063532, -187500.02235174447, -8107.290638362246, -2545.9978039262064, -358.8349054854996, 1.01, -0.004, 0.19, 192.0, 0.0, 0.0, 0.0, 0.0, 0.0, 0.0, 0.0, 0.0, 0.0, 1.679087131353041E9, 0.0, 2023-03-17 14:05:31.353
100.0, -3739.35744039505, -1002.8557184762619, 9571.41930716268, -14230.618087126983, -187500.02235174447, -8105.949533694928, -2541.4827515462343, -348.3295855915053, 1.01, -0.004, 0.19, 192.0, 0.0, 0.0, 0.0, 0.0, 0.0, 0.0, 0.0, 0.0, 0.0, 1.679087131353059E9, 0.0, 2023-03-17 14:05:31.353
101.0, -3671.4304889953723, -918.2543657129247, 9639.614479495822, -14136.18196680331, -187500.02235174447, -8031.205300236381, -2474.516925158134, -267.93036078576574, 1.01, -0.004, 0.19, 192.0, 0.0, 0.0, 0.0, 0.0, 0.0, 0.0, 0.0, 0.0, 0.0, 1.679087131361106E9, 0.0, 2023-03-17 14:05:31.361
102.0, -3681.82405016709, -903.0551794833159, 9673.34326187888, -14149.548309987584, -187500.02235174447, -7989.2063724048585, -2465.3527099314583, -269.02559626407583, 1.01, -0.004, 0.19, 192.0, 0.0, 0.0, 0.0, 0.0, 0.0, 0.0, 0.0, 0.0, 0.0, 1.679087131361125E9, 0.0, 2023-03-17 14:05:31.361
103.0, -3739.022164228221, -993.5573927828542, 9585.657368380711, -14254.042715316144, -187500.02235174447, -8080.31208280469, -2484.329340974014, -358.9019607188655, 1.01, -0.004, 0.19, 192.0, 0.0, 0.0, 0.0, 0.0, 0.0, 0.0, 0.0, 0.0, 0.0, 1.679087131368991E9, 0.0, 2023-03-17 14:05:31.368
104.0, -3730.21557691283, -995.4796428060107, 9572.738060085543, -14227.086511503043, -187500.02235174447, -8093.432556799956, -2520.2485943136926, -339.5677017650249, 1.01, -0.004, 0.19, 192.0, 0.0, 0.0, 0.0, 0.0, 0.0, 0.0, 0.0, 0.0, 0.0, 1.679087131369028E9, 0.0, 2023-03-17 14:05:31.369
105.0, -3659.0029190782216, -907.637287096654, 9643.14605511976, -14118.591143916983, -187500.02235174447, -8021.102311742582, -2442.1292474423944, -256.1062879689083, 1.01, -0.004, 0.19, 192.0, 0.0, 0.0, 0.0, 0.0, 0.0, 0.0, 0.0, 0.0, 0.0, 1.679087131375677E9, 0.0, 2023-03-17 14:05:31.375
106.0, -3666.736622659758, -887.051330453316, 9676.472506102624, -14126.883641109902, -187500.02235174447, -8004.20439293437, -2422.4820640661796, -241.06356395048667, 1.01, -0.004, 0.19, 192.0, 0.0, 0.0, 0.0, 0.0, 0.0, 0.0, 0.0, 0.0, 0.0, 1.679087131375729E9, 0.0, 2023-03-17 14:05:31.375
107.0, -3727.399257111461, -969.8421919157735, 9605.125737801283, -14232.495633661227, -187500.02235174447, -8066.5657599646765, -2505.7646639066534, -364.40048985487107, 1.008, -0.004, 0.194, 192.0, 31.0, 128.0, 255.0, 224.0, 6.0, 16.0, 0.0, 0.0, 0.0, 1.679087131382776E9, 0.0, 2023-03-17 14:05:31.382
108.0, -3738.1951496833744, -998.9218114521279, 9570.882865295753, -14249.371200724985, -187500.02235174447, -8085.69885321842, -2562.158115167393, -397.1904989708065, 1.008, -0.004, 0.194, 192.0, 0.0, 0.0, 0.0, 0.0, 0.0, 0.0, 0.0, 0.0, 0.0, 1.67908713139069E9, 0.0, 2023-03-17 14:05:31.390
109.0, -3671.4304889953723, -915.9521360340282, 9645.805912709942, -14147.290783797596, -187500.02235174447, -8012.5639453606545, -2462.0670034965283, -244.12575294086375, 1.008, -0.004, 0.194, 192.0, 0.0, 0.0, 0.0, 0.0, 0.0, 0.0, 0.0, 0.0, 0.0, 1.679087131390728E9, 0.0, 2023-03-17 14:05:31.390
110.0, -3668.2341895382633, -891.70049330002, 9674.863180501841, -14139.691190682792, -187500.02235174447, -7986.2112386478475, -2417.542328541557, -202.5291565095373, 1.008, -0.004, 0.194, 192.0, 0.0, 0.0, 0.0, 0.0, 0.0, 0.0, 0.0, 0.0, 0.0, 1.67908713139769E9, 0.0, 2023-03-17 14:05:31.397
111.0, -3718.6373732849806, -954.3300812637904, 9629.19856657965, -14227.645305114425, -187500.02235174447, -8041.420047452456, -2479.7025298717654, -289.03040755157565, 1.008, -0.004, 0.194, 192.0, 0.0, 0.0, 0.0, 0.0, 0.0, 0.0, 0.0, 0.0, 0.0, 1.679087131397725E9, 0.0, 2023-03-17 14:05:31.397
112.0, -3727.2874983891847, -991.5904392707872, 9582.461068923601, -14248.052447802122, -187500.02235174447, -8091.689120732442, -2529.1445886069046, -341.24408259917294, 1.008, -0.004, 0.194, 192.0, 0.0, 0.0, 0.0, 0.0, 0.0, 0.0, 0.0, 0.0, 0.0, 1.679087131405315E9, 0.0, 2023-03-17 14:05:31.405
113.0, -3671.29637852864, -921.473016914489, 9633.646563726255, -14152.789312933603, -187500.02235174447, -8030.1771199914365, -2472.527619901612, -275.2840847115618, 1.008, -0.004, 0.194, 192.0, 0.0, 0.0, 0.0, 0.0, 0.0, 0.0, 0.0, 0.0, 0.0, 1.67908713140535E9, 0.0, 2023-03-17 14:05:31.405
114.0, -3641.702668869814, -867.1582778880928, 9688.67655857522, -14115.372492715418, -187500.02235174447, -7965.178247115404, -2427.555910057534, -220.8575869628891, 1.008, -0.004, 0.194, 192.0, 0.0, 0.0, 0.0, 0.0, 0.0, 0.0, 0.0, 0.0, 0.0, 1.679087131413279E9, 0.0, 2023-03-17 14:05:31.413
115.0, -3703.6170010110145, -926.6139181392095, 9645.895319687763, -14202.276075157652, -187500.02235174447, -8024.745646088797, -2478.808460093553, -272.7359858436568, 1.008, -0.004, 0.194, 192.0, 0.0, 0.0, 0.0, 0.0, 0.0, 0.0, 0.0, 0.0, 0.0, 1.679087131413305E9, 0.0, 2023-03-17 14:05:31.413
116.0, -3747.5381788656928, -1003.7050847655637, 9563.84206579233, -14273.645195203448, -187500.02235174447, -8121.059312946715, -2557.4642488317786, -370.16723992434027, 1.008, -0.004, 0.194, 192.0, 0.0, 0.0, 0.0, 0.0, 0.0, 0.0, 0.0, 0.0, 0.0, 1.679087131421271E9, 0.0, 2023-03-17 14:05:31.421
117.0, -3698.364341064017, -942.7071741470306, 9616.592182706856, -14184.484086571229, -187500.02235174447, -8061.469562228866, -2499.3497132479806, -303.78255889207827, 1.006, -0.002, 0.192, 192.0, 31.0, 112.0, 255.0, 240.0, 6.0, 0.0, 0.0, 0.0, 0.0, 1.679087131421296E9, 0.0, 2023-03-17 14:05:31.421
118.0, -3650.017517807188, -879.4517373385116, 9672.739764778587, -14116.735949127193, -187500.02235174447, -7975.013014675738, -2420.2915931095595, -238.53781682703698, 1.006, -0.002, 0.192, 192.0, 0.0, 0.0, 0.0, 0.0, 0.0, 0.0, 0.0, 0.0, 0.0, 1.679087131427882E9, 0.0, 2023-03-17 14:05:31.427
119.0, -3699.2584108422293, -918.2320139684695, 9652.645546513266, -14187.345109861508, -187500.02235174447, -8005.746663301786, -2462.111706985439, -275.3287882004724, 1.006, -0.002, 0.192, 192.0, 0.0, 0.0, 0.0, 0.0, 0.0, 0.0, 0.0, 0.0, 0.0, 1.679087131427916E9, 0.0, 2023-03-17 14:05:31.427
120.0, -3740.4079723844497, -995.8596224617509, 9576.761374087499, -14269.890102134956, -187500.02235174447, -8104.049635416226, -2606.123996510982, -382.75127205267813, 1.006, -0.002, 0.192, 192.0, 0.0, 0.0, 0.0, 0.0, 0.0, 0.0, 0.0, 0.0, 0.0, 1.679087131435957E9, 0.0, 2023-03-17 14:05:31.435
121.0, -3712.960030193333, -962.600226712254, 9600.029540065472, -14209.42863338335, -187500.02235174447, -8073.695966445919, -2515.4429692558015, -339.2771290871059, 1.006, -0.002, 0.192, 192.0, 0.0, 0.0, 0.0, 0.0, 0.0, 0.0, 0.0, 0.0, 0.0, 1.679087131435974E9, 0.0, 2023-03-17 14:05:31.435
122.0, -3666.982491848766, -900.9317637600618, 9645.4259330542, -14142.820434906536, -187500.02235174447, -8018.889489041507, -2434.7084682832324, -256.57567460246975, 1.006, -0.002, 0.192, 192.0, 0.0, 0.0, 0.0, 0.0, 0.0, 0.0, 0.0, 0.0, 0.0, 1.679087131443061E9, 0.0, 2023-03-17 14:05:31.443
123.0, -3703.147614377453, -910.4759586424778, 9656.132418648294, -14190.966092463266, -187500.02235174447, -8015.290858184202, -2448.0077562341403, -255.1228112128748, 1.006, -0.002, 0.192, 192.0, 0.0, 0.0, 0.0, 0.0, 0.0, 0.0, 0.0, 0.0, 0.0, 1.679087131443088E9, 0.0, 2023-03-17 14:05:31.443
124.0, -3752.1649899679414, -995.4572910615553, 9573.453315908113, -14283.122334852498, -187500.02235174447, -8117.863013489607, -2545.17078938136, -360.91361771984316, 1.006, -0.002, 0.192, 192.0, 0.0, 0.0, 0.0, 0.0, 0.0, 0.0, 0.0, 0.0, 0.0, 1.679087131450959E9, 0.0, 2023-03-17 14:05:31.450
125.0, -3735.3564781375503, -981.4874507769885, 9579.153010744216, -14239.715247120292, -187500.02235174447, -8106.396568584034, -2540.7674957236645, -348.06136465804155, 1.006, -0.002, 0.192, 192.0, 0.0, 0.0, 0.0, 0.0, 0.0, 0.0, 0.0, 0.0, 0.0, 1.679087131457476E9, 0.0, 2023-03-17 14:05:31.457
126.0, -3675.9008378864337, -909.9842202644611, 9632.305459058936, -14150.151807087876, -187500.02235174447, -8043.588166664621, -2475.589808891989, -285.25296273862875, 1.006, -0.002, 0.192, 192.0, 0.0, 0.0, 0.0, 0.0, 0.0, 0.0, 0.0, 0.0, 0.0, 1.679087131457531E9, 0.0, 2023-03-17 14:05:31.457
127.0, -3687.434338025372, -894.4944613569334, 9664.804895496953, -14168.346127074496, -187500.02235174447, -8008.741797058797, -2464.7045093422544, -267.59508461893614, 1.006, -0.002, 0.192, 192.0, 0.0, 0.0, 0.0, 0.0, 0.0, 0.0, 0.0, 0.0, 0.0, 1.679087131465599E9, 0.0, 2023-03-17 14:05:31.465
128.0, -3734.775332781712, -972.2338285724913, 9597.928476086674, -14260.72588690828, -187500.02235174447, -8079.909751404495, -2531.3127078190696, -332.9068819173434, 1.0, -0.006, 0.194, 192.0, 31.0, 64.0, 255.0, 208.0, 6.0, 16.0, 0.0, 0.0, 0.0, 1.679087131465636E9, 0.0, 2023-03-17 14:05:31.465
129.0, -3735.2447194152737, -985.4884130344884, 9576.47080140958, -14257.641346173448, -187500.02235174447, -8094.259571344802, -2545.88604520393, -355.5491990505694, 1.0, -0.006, 0.194, 192.0, 0.0, 0.0, 0.0, 0.0, 0.0, 0.0, 0.0, 0.0, 0.0, 1.679087131473576E9, 0.0, 2023-03-17 14:05:31.473
130.0, -3663.7414889027464, -901.2670399268914, 9643.548386519955, -14154.286879812107, -187500.02235174447, -8015.715541328853, -2461.7093755852434, -288.0245790510868, 1.0, -0.006, 0.194, 192.0, 0.0, 0.0, 0.0, 0.0, 0.0, 0.0, 0.0, 0.0, 0.0, 1.679087131473605E9, 0.0, 2023-03-17 14:05:31.473
131.0, -3681.019387366699, -892.1475281891261, 9665.430744341702, -14171.117743386954, -187500.02235174447, -8005.925477257429, -2446.554892844545, -265.7175380846904, 1.0, -0.006, 0.194, 192.0, 0.0, 0.0, 0.0, 0.0, 0.0, 0.0, 0.0, 0.0, 0.0, 1.679087131480624E9, 0.0, 2023-03-17 14:05:31.480
132.0, -3740.497379362271, -974.6701687181197, 9597.906124342218, -14273.466381247805, -187500.02235174447, -8086.615274741087, -2550.9151877063737, -346.9214256908209, 1.0, -0.006, 0.194, 192.0, 0.0, 0.0, 0.0, 0.0, 0.0, 0.0, 0.0, 0.0, 0.0, 1.679087131480659E9, 0.0, 2023-03-17 14:05:31.480
133.0, -3740.2515101732624, -995.4572910615553, 9570.435830406646, -14280.73069819578, -187500.02235174447, -8113.169147153992, -2556.972510453762, -356.9350072067985, 1.0, -0.006, 0.194, 192.0, 0.0, 0.0, 0.0, 0.0, 0.0, 0.0, 0.0, 0.0, 0.0, 1.679087131488056E9, 0.0, 2023-03-17 14:05:31.488
134.0, -3691.882335171978, -934.2358629984693, 9615.161671061716, -14195.704662287792, -187500.02235174447, -8056.105143559593, -2488.1291375314163, -300.31803850150567, 1.0, -0.006, 0.194, 192.0, 0.0, 0.0, 0.0, 0.0, 0.0, 0.0, 0.0, 0.0, 0.0, 1.679087131488083E9, 0.0, 2023-03-17 14:05:31.488
135.0, -3678.8065646656237, -898.3389614032461, 9646.945851677163, -14172.257682354175, -187500.02235174447, -8016.766073318252, -2440.6093288194334, -266.34338692943896, 1.0, -0.006, 0.194, 192.0, 0.0, 0.0, 0.0, 0.0, 0.0, 0.0, 0.0, 0.0, 0.0, 1.679087131496238E9, 0.0, 2023-03-17 14:05:31.496
136.0, -3728.852120501056, -957.6828429320864, 9606.153918046228, -14263.25163403173, -187500.02235174447, -8060.128457561548, -2498.1874225363044, -336.5725680080138, 1.0, -0.006, 0.194, 192.0, 0.0, 0.0, 0.0, 0.0, 0.0, 0.0, 0.0, 0.0, 0.0, 1.67908713149625E9, 0.0, 2023-03-17 14:05:31.496
137.0, -3744.3418794085837, -999.726474252519, 9565.741964071032, -14300.869619950012, -187500.02235174447, -8108.676446518475, -2566.9190367363735, -378.1468126948849, 1.0, -0.006, 0.194, 192.0, 0.0, 0.0, 0.0, 0.0, 0.0, 0.0, 0.0, 0.0, 0.0, 1.679087131504238E9, 0.0, 2023-03-17 14:05:31.504
138.0, -3698.274934086196, -942.5954154247542, 9601.795327877442, -14212.714339818282, -187500.02235174447, -8071.237274555836, -2504.6470766838884, -316.1877770647737, 1.002, -0.01, 0.2, 192.0, 31.0, 80.0, 255.0, 176.0, 6.0, 64.0, 0.0, 0.0, 0.0, 1.679087131504261E9, 0.0, 2023-03-17 14:05:31.504
139.0, -3679.2983030436403, -902.6081445942098, 9632.640735225767, -14185.825191238546, -187500.02235174447, -8020.990553020305, -2462.6481488523664, -268.5115061416037, 1.002, -0.01, 0.2, 192.0, 0.0, 0.0, 0.0, 0.0, 0.0, 0.0, 0.0, 0.0, 0.0, 1.67908713151019E9, 0.0, 2023-03-17 14:05:31.510
140.0, -3738.9104055059443, -958.1075260767373, 9599.671912154188, -14272.326442280584, -187500.02235174447, -8056.730992404341, -2534.26313808717, -312.8797188853883, 1.002, -0.01, 0.2, 192.0, 0.0, 0.0, 0.0, 0.0, 0.0, 0.0, 0.0, 0.0, 0.0, 1.679087131517768E9, 0.0, 2023-03-17 14:05:31.517
141.0, -3757.2835394482067, -1009.4271313461222, 9549.000507474007, -14311.30788461064, -187500.02235174447, -8114.934934965961, -2606.548679655633, -369.2061149127621, 1.002, -0.01, 0.2, 192.0, 0.0, 0.0, 0.0, 0.0, 0.0, 0.0, 0.0, 0.0, 0.0, 1.679087131517819E9, 0.0, 2023-03-17 14:05:31.517
142.0, -3726.572242566615, -972.0773663613041, 9572.64865310772, -14233.792034839635, -187500.02235174447, -8085.274170073769, -2535.067800887561, -334.62796624040203, 1.002, -0.01, 0.2, 192.0, 0.0, 0.0, 0.0, 0.0, 0.0, 0.0, 0.0, 0.0, 0.0, 1.679087131525893E9, 0.0, 2023-03-17 14:05:31.525
143.0, -3681.4217187668946, -907.793749307841, 9626.76222643402, -14180.438420824818, -187500.02235174447, -8030.132416502526, -2434.820227005509, -274.792346333545, 1.002, -0.01, 0.2, 192.0, 0.0, 0.0, 0.0, 0.0, 0.0, 0.0, 0.0, 0.0, 0.0, 1.679087131525909E9, 0.0, 2023-03-17 14:05:31.525
144.0, -3720.760789008235, -925.1387030051593, 9634.04889512645, -14264.168055554397, -187500.02235174447, -8041.755323619285, -2469.1748582333157, -309.37049500590507, 1.002, -0.01, 0.2, 192.0, 0.0, 0.0, 0.0, 0.0, 0.0, 0.0, 0.0, 0.0, 0.0, 1.679087131533899E9, 0.0, 2023-03-17 14:05:31.533
145.0, -3772.1027460220753, -1015.4844540935105, 9547.681754551144, -14362.091048013097, -187500.02235174447, -8148.127275482092, -2586.1191852234824, -442.69865068181167, 1.002, -0.01, 0.2, 192.0, 0.0, 0.0, 0.0, 0.0, 0.0, 0.0, 0.0, 0.0, 0.0, 1.679087131533917E9, 0.0, 2023-03-17 14:05:31.533
146.0, -3749.9298155224105, -992.3503985822676, 9563.372679158769, -14307.910419453434, -187500.02235174447, -8123.249783903335, -2588.3096561801026, -395.17884196982885, 1.002, -0.01, 0.2, 192.0, 0.0, 0.0, 0.0, 0.0, 0.0, 0.0, 0.0, 0.0, 0.0, 1.679087131540467E9, 0.0, 2023-03-17 14:05:31.540
147.0, -3691.9940938942545, -922.0988657592376, 9621.062531597916, -14229.321685948575, -187500.02235174447, -8052.439457468922, -2496.645152168888, -307.2694310271062, 1.002, -0.01, 0.2, 192.0, 0.0, 0.0, 0.0, 0.0, 0.0, 0.0, 0.0, 0.0, 0.0, 1.679087131540486E9, 0.0, 2023-03-17 14:05:31.540
148.0, -3724.426475098905, -935.0628775433156, 9624.99643862205, -14273.39932601444, -187500.02235174447, -8054.40641098099, -2488.5761724205227, -304.54251820355876, 1.0, -0.006, 0.2, 192.0, 31.0, 64.0, 255.0, 208.0, 6.0, 64.0, 0.0, 0.0, 0.0, 1.679087131548456E9, 0.0, 2023-03-17 14:05:31.548
149.0, -3760.815115072145, -1007.2590121339575, 9557.382411644747, -14353.776199075724, -187500.02235174447, -8137.733714310374, -2564.12506867946, -392.80955705756634, 1.0, -0.006, 0.2, 192.0, 0.0, 0.0, 0.0, 0.0, 0.0, 0.0, 0.0, 0.0, 0.0, 1.679087131548473E9, 0.0, 2023-03-17 14:05:31.548
150.0, -3756.1883039698964, -1003.369808598734, 9554.968423243574, -14332.095006954076, -187500.02235174447, -8141.108827723126, -2570.204743171304, -387.1545657103736, 1.0, -0.006, 0.2, 192.0, 0.0, 0.0, 0.0, 0.0, 0.0, 0.0, 0.0, 0.0, 0.0, 1.679087131556386E9, 0.0, 2023-03-17 14:05:31.556
151.0, -3693.2010880948415, -926.6362698836649, 9614.982857106073, -14237.614183141493, -187500.02235174447, -8062.475390729355, -2496.8463178689863, -312.9467741187542, 1.0, -0.006, 0.2, 192.0, 0.0, 0.0, 0.0, 0.0, 0.0, 0.0, 0.0, 0.0, 0.0, 1.679087131556401E9, 0.0, 2023-03-17 14:05:31.556
152.0, -3704.4216638114053, -915.5274528893773, 9639.972107407106, -14253.170997282386, -187500.02235174447, -8026.600840878587, -2487.212716008749, -298.1722710337962, 1.0, -0.006, 0.2, 192.0, 0.0, 0.0, 0.0, 0.0, 0.0, 0.0, 0.0, 0.0, 0.0, 1.679087131563197E9, 0.0, 2023-03-17 14:05:31.563
153.0, -3762.469144161838, -1009.4494830905776, 9552.867359264776, -14354.536158387204, -187500.02235174447, -8132.212833429913, -2598.993790029739, -387.4898418772032, 1.0, -0.006, 0.2, 192.0, 0.0, 0.0, 0.0, 0.0, 0.0, 0.0, 0.0, 0.0, 0.0, 1.679087131563212E9, 0.0, 2023-03-17 14:05:31.563
154.0, -3768.7052808648687, -1029.655460078175, 9526.93933569662, -14348.389428661994, -187500.02235174447, -8158.4314296759885, -2626.486435709767, -403.560746140569, 1.0, -0.006, 0.2, 192.0, 0.0, 0.0, 0.0, 0.0, 0.0, 0.0, 0.0, 0.0, 0.0, 1.679087131570193E9, 0.0, 2023-03-17 14:05:31.570
155.0, -3687.4119862809166, -932.2242059974917, 9614.133490816772, -14232.562688894594, -187500.02235174447, -8071.93017863395, -2474.181648991305, -308.0293903385866, 1.0, -0.006, 0.2, 192.0, 0.0, 0.0, 0.0, 0.0, 0.0, 0.0, 0.0, 0.0, 0.0, 1.679087131578064E9, 0.0, 2023-03-17 14:05:31.578
156.0, -3685.333274046573, -908.7772260638745, 9647.728162733098, -14234.417883684384, -187500.02235174447, -8038.916652073462, -2447.113686455928, -285.85645983892204, 1.0, -0.006, 0.2, 192.0, 0.0, 0.0, 0.0, 0.0, 0.0, 0.0, 0.0, 0.0, 0.0, 1.679087131578083E9, 0.0, 2023-03-17 14:05:31.578
157.0, -3748.767524810735, -993.6691515051308, 9573.319205441381, -14337.459425623349, -187500.02235174447, -8131.721095051897, -2534.710172976276, -380.5831528405134, 1.0, -0.006, 0.2, 192.0, 0.0, 0.0, 0.0, 0.0, 0.0, 0.0, 0.0, 0.0, 0.0, 1.679087131586197E9, 0.0, 2023-03-17 14:05:31.586
158.0, -3769.107612265064, -1036.3609834147674, 9521.686675749621, -14365.287347470206, -187500.02235174447, -8159.99605178786, -2591.9529905263175, -422.31385973857164, 1.0, -0.004, 0.202, 192.0, 31.0, 64.0, 255.0, 224.0, 6.0, 80.0, 0.0, 0.0, 0.0, 1.679087131586215E9, 0.0, 2023-03-17 14:05:31.586
159.0, -3713.563527293626, -965.662415702631, 9575.46497290909, -14278.87550340599, -187500.02235174447, -8082.167277594481, -2544.3661265809687, -356.6444345288795, 1.0, -0.004, 0.202, 192.0, 0.0, 0.0, 0.0, 0.0, 0.0, 0.0, 0.0, 0.0, 0.0, 1.679087131592929E9, 0.0, 2023-03-17 14:05:31.592
160.0, -3689.244829326252, -918.567290135299, 9622.046008353951, -14247.337191979552, -187500.02235174447, -8039.520149173755, -2464.436288408791, -302.8437856249554, 1.0, -0.004, 0.202, 192.0, 0.0, 0.0, 0.0, 0.0, 0.0, 0.0, 0.0, 0.0, 0.0, 1.679087131592951E9, 0.0, 2023-03-17 14:05:31.592
161.0, -3744.185417197397, -981.24158158798, 9582.304606712414, -14334.084312210598, -187500.02235174447, -8096.226524856869, -2523.9366321488183, -388.67448433333453, 1.0, -0.004, 0.202, 192.0, 0.0, 0.0, 0.0, 0.0, 0.0, 0.0, 0.0, 0.0, 0.0, 1.679087131600858E9, 0.0, 2023-03-17 14:05:31.600
162.0, -3773.5109059227593, -1043.982928274027, 9518.22215535905, -14380.732402888823, -187500.02235174447, -8176.893970596072, -2593.6070196160103, -464.6257119924679, 1.0, -0.004, 0.202, 192.0, 0.0, 0.0, 0.0, 0.0, 0.0, 0.0, 0.0, 0.0, 0.0, 1.679087131600874E9, 0.0, 2023-03-17 14:05:31.600
163.0, -3728.583899567592, -982.4485757885666, 9574.392089175235, -14299.170887371409, -187500.02235174447, -8107.5365075512545, -2535.447780543301, -355.7503647506672, 1.0, -0.004, 0.202, 192.0, 0.0, 0.0, 0.0, 0.0, 0.0, 0.0, 0.0, 0.0, 0.0, 1.679087131608732E9, 0.0, 2023-03-17 14:05:31.608
164.0, -3703.6170010110145, -932.7382961199637, 9625.644639211254, -14261.06116307511, -187500.02235174447, -8048.125570789048, -2518.818082668553, -292.7407971311566, 1.0, -0.004, 0.202, 192.0, 0.0, 0.0, 0.0, 0.0, 0.0, 0.0, 0.0, 0.0, 0.0, 1.679087131608745E9, 0.0, 2023-03-17 14:05:31.608
165.0, -3755.294234191684, -978.8052414423515, 9603.605819178321, -14339.292268668685, -187500.02235174447, -8092.382024810556, -2545.237844614726, -340.7746959656115, 1.0, -0.004, 0.202, 192.0, 0.0, 0.0, 0.0, 0.0, 0.0, 0.0, 0.0, 0.0, 0.0, 1.679087131615905E9, 0.0, 2023-03-17 14:05:31.615
166.0, -3780.9987403152873, -1040.9430910281053, 9537.668173035167, -14395.216333295863, -187500.02235174447, -8150.585967372176, -2588.197897457826, -429.7569906421889, 1.0, -0.004, 0.202, 192.0, 0.0, 0.0, 0.0, 0.0, 0.0, 0.0, 0.0, 0.0, 0.0, 1.679087131615923E9, 0.0, 2023-03-17 14:05:31.615
167.0, -3754.1989987133743, -1000.7770062419185, 9562.903292525209, -14327.401140618462, -187500.02235174447, -8101.769757481785, -2546.511894048678, -386.61812384344626, 1.0, -0.004, 0.202, 192.0, 0.0, 0.0, 0.0, 0.0, 0.0, 0.0, 0.0, 0.0, 0.0, 1.679087131623473E9, 0.0, 2023-03-17 14:05:31.623
168.0, -3705.338085334073, -932.8724065866955, 9614.982857106073, -14258.669526418393, -187500.02235174447, -8042.358820719579, -2483.4799746847125, -311.62802119589105, 0.988, -0.008, 0.202, 192.0, 30.0, 224.0, 255.0, 192.0, 6.0, 80.0, 0.0, 0.0, 0.0, 1.679087131623492E9, 0.0, 2023-03-17 14:05:31.623
169.0, -3746.6217573430254, -960.2979970333573, 9608.545554702945, -14322.707274282846, -187500.02235174447, -8056.328661004146, -2499.237954525704, -323.69796320175686, 0.988, -0.008, 0.202, 192.0, 0.0, 0.0, 0.0, 0.0, 0.0, 0.0, 0.0, 0.0, 0.0, 1.679087131630497E9, 0.0, 2023-03-17 14:05:31.630
170.0, -3781.1999060153853, -1037.143294470703, 9532.639030532722, -14403.285313044229, -187500.02235174447, -8146.361487670123, -2587.840269546541, -422.38091497193756, 0.988, -0.008, 0.202, 192.0, 0.0, 0.0, 0.0, 0.0, 0.0, 0.0, 0.0, 0.0, 0.0, 1.679087131638415E9, 0.0, 2023-03-17 14:05:31.638
171.0, -3753.595501613081, -1005.7614452554519, 9550.609833074788, -14344.07554198212, -187500.02235174447, -8128.457740361422, -2556.4137168423795, -377.9456469947871, 0.988, -0.008, 0.202, 192.0, 0.0, 0.0, 0.0, 0.0, 0.0, 0.0, 0.0, 0.0, 0.0, 1.679087131638436E9, 0.0, 2023-03-17 14:05:31.638
172.0, -3680.8405734110565, -916.1085982452153, 9626.71752294511, -14242.799787855123, -187500.02235174447, -8055.278129014747, -2496.5110417021565, -294.9312680877767, 0.988, -0.008, 0.202, 192.0, 0.0, 0.0, 0.0, 0.0, 0.0, 0.0, 0.0, 0.0, 0.0, 1.679087131645615E9, 0.0, 2023-03-17 14:05:31.645
173.0, -3715.3293151055955, -927.1727117505923, 9636.440531783168, -14290.833686689579, -187500.02235174447, -8021.169366975948, -2496.5780969355224, -299.22280302319564, 0.988, -0.008, 0.202, 192.0, 0.0, 0.0, 0.0, 0.0, 0.0, 0.0, 0.0, 0.0, 0.0, 1.679087131645636E9, 0.0, 2023-03-17 14:05:31.645
174.0, -3781.8481066045892, -1030.9742130010384, 9537.578766057344, -14408.202696824395, -187500.02235174447, -8120.388760613056, -2562.225170400759, -421.5762521715465, 0.988, -0.008, 0.202, 192.0, 0.0, 0.0, 0.0, 0.0, 0.0, 0.0, 0.0, 0.0, 0.0, 1.679087131652923E9, 0.0, 2023-03-17 14:05:31.652
175.0, -3773.0862227781085, -1025.2968699093904, 9536.997620701506, -14372.439905695905, -187500.02235174447, -8129.79884502874, -2560.4146790998793, -406.22060373075055, 0.988, -0.008, 0.202, 192.0, 0.0, 0.0, 0.0, 0.0, 0.0, 0.0, 0.0, 0.0, 0.0, 1.679087131652944E9, 0.0, 2023-03-17 14:05:31.652
176.0, -3707.2379836127743, -944.8082381258296, 9603.628170922777, -14269.15249456793, -187500.02235174447, -8055.702812159398, -2512.1796145653266, -308.63288743887995, 0.988, -0.008, 0.202, 192.0, 0.0, 0.0, 0.0, 0.0, 0.0, 0.0, 0.0, 0.0, 0.0, 1.679087131661075E9, 0.0, 2023-03-17 14:05:31.661
177.0, -3721.9007279754555, -936.8957205886509, 9626.359895033824, -14290.341948311561, -187500.02235174447, -8024.298611199691, -2497.4051114803688, -300.74272164615655, 0.988, -0.008, 0.202, 192.0, 0.0, 0.0, 0.0, 0.0, 0.0, 0.0, 0.0, 0.0, 0.0, 1.679087131661095E9, 0.0, 2023-03-17 14:05:31.661
178.0, -3775.120231523542, -1024.8051315313735, 9539.813940502876, -14393.94228386191, -187500.02235174447, -8135.051504975737, -2560.9958244557174, -406.399417686393, 0.996, -0.004, 0.202, 192.0, 31.0, 32.0, 255.0, 224.0, 6.0, 80.0, 0.0, 0.0, 0.0, 1.679087131668279E9, 0.0, 2023-03-17 14:05:31.668
179.0, -3756.635338859003, -1021.050038462882, 9538.092856179817, -14372.305795229173, -187500.02235174447, -8145.914452781017, -2554.3126528635803, -402.80078682908857, 0.996, -0.004, 0.202, 192.0, 0.0, 0.0, 0.0, 0.0, 0.0, 0.0, 0.0, 0.0, 0.0, 1.679087131668314E9, 0.0, 2023-03-17 14:05:31.668
180.0, -3714.7705214942125, -965.5283052358992, 9582.483420668057, -14300.333178083085, -187500.02235174447, -8075.864085658084, -2511.911393631863, -372.84944925897713, 0.996, -0.004, 0.202, 192.0, 0.0, 0.0, 0.0, 0.0, 0.0, 0.0, 0.0, 0.0, 0.0, 1.679087131675817E9, 0.0, 2023-03-17 14:05:31.675
181.0, -3695.5480212626485, -918.4331796685672, 9639.05568588444, -14275.299224293141, -187500.02235174447, -8019.738855330808, -2443.1350759428833, -321.35103003394966, 0.996, -0.004, 0.202, 192.0, 0.0, 0.0, 0.0, 0.0, 0.0, 0.0, 0.0, 0.0, 0.0, 1.67908713167585E9, 0.0, 2023-03-17 14:05:31.675
182.0, -3759.7645830827455, -1002.8333667318067, 9570.234664706548, -14383.727536645834, -187500.02235174447, -8107.380045340067, -2554.3126528635803, -355.1021641614633, 0.996, -0.004, 0.202, 192.0, 0.0, 0.0, 0.0, 0.0, 0.0, 0.0, 0.0, 0.0, 0.0, 1.679087131683713E9, 0.0, 2023-03-17 14:05:31.683
183.0, -3790.65469391998, -1060.5232191709542, 9506.465137775558, -14429.638019757036, -187500.02235174447, -8175.977549073405, -2636.298851525647, -406.84645257549914, 0.996, -0.004, 0.202, 192.0, 0.0, 0.0, 0.0, 0.0, 0.0, 0.0, 0.0, 0.0, 0.0, 1.679087131683738E9, 0.0, 2023-03-17 14:05:31.683
184.0, -3719.6208500410144, -973.083194861793, 9581.343481700836, -14322.237887649286, -187500.02235174447, -8077.227542069858, -2501.6966464157877, -334.67266972931264, 0.996, -0.004, 0.202, 192.0, 0.0, 0.0, 0.0, 0.0, 0.0, 0.0, 0.0, 0.0, 0.0, 1.679087131690854E9, 0.0, 2023-03-17 14:05:31.690
185.0, -3685.556791491126, -913.6722580995868, 9642.073171385906, -14279.121372594998, -187500.02235174447, -8016.117872729048, -2458.7142418282324, -284.96239006070977, 0.996, -0.004, 0.202, 192.0, 0.0, 0.0, 0.0, 0.0, 0.0, 0.0, 0.0, 0.0, 0.0, 1.679087131690904E9, 0.0, 2023-03-17 14:05:31.690
186.0, -3747.3146614211396, -985.7119304790415, 9589.010130049006, -14379.190132521408, -187500.02235174447, -8079.3062543042015, -2551.071649917561, -377.4539086167704, 0.996, -0.004, 0.202, 192.0, 0.0, 0.0, 0.0, 0.0, 0.0, 0.0, 0.0, 0.0, 0.0, 1.679087131697999E9, 0.0, 2023-03-17 14:05:31.697
187.0, -3781.401071715483, -1051.627224877742, 9518.445672803602, -14440.255098373307, -187500.02235174447, -8145.422714403, -2625.4806072092783, -426.73950514072243, 0.996, -0.004, 0.202, 192.0, 0.0, 0.0, 0.0, 0.0, 0.0, 0.0, 0.0, 0.0, 0.0, 1.679087131705341E9, 0.0, 2023-03-17 14:05:31.705
188.0, -3735.1553124374527, -991.1210526372257, 9563.03740299194, -14355.60904212106, -187500.02235174447, -8110.88926921955, -2559.006519199195, -348.9554344362539, 1.002, -0.006, 0.2, 192.0, 31.0, 80.0, 255.0, 208.0, 6.0, 64.0, 0.0, 0.0, 0.0, 1.679087131705401E9, 0.0, 2023-03-17 14:05:31.705
189.0, -3685.981474635777, -918.2096622240141, 9633.110121859327, -14290.431355289384, -187500.02235174447, -8048.5502539336985, -2460.0553464955506, -285.27531448308406, 1.002, -0.006, 0.2, 192.0, 0.0, 0.0, 0.0, 0.0, 0.0, 0.0, 0.0, 0.0, 0.0, 1.679087131713393E9, 0.0, 2023-03-17 14:05:31.713
190.0, -3732.6519170584584, -959.4262789996004, 9614.826394894886, -14360.03468752321, -187500.02235174447, -8076.556989736198, -2482.9211810733295, -319.16055907732954, 1.002, -0.006, 0.2, 192.0, 0.0, 0.0, 0.0, 0.0, 0.0, 0.0, 0.0, 0.0, 0.0, 1.679087131713462E9, 0.0, 2023-03-17 14:05:31.713
191.0, -3769.1299640095194, -1033.4776083800327, 9543.770199271465, -14429.056874401198, -187500.02235174447, -8148.037868504271, -2573.646911817421, -409.68512412132316, 1.002, -0.006, 0.2, 192.0, 0.0, 0.0, 0.0, 0.0, 0.0, 0.0, 0.0, 0.0, 0.0, 1.679087131721411E9, 0.0, 2023-03-17 14:05:31.721
192.0, -3751.427382400916, -1004.6885615215972, 9561.159856457694, -14374.831542352624, -187500.02235174447, -8116.298391377734, -2550.714022006276, -376.31396964954973, 1.002, -0.006, 0.2, 192.0, 0.0, 0.0, 0.0, 0.0, 0.0, 0.0, 0.0, 0.0, 0.0, 1.679087131721449E9, 0.0, 2023-03-17 14:05:31.721
193.0, -3688.797794437146, -920.6460023696426, 9635.546462004955, -14289.872561678001, -187500.02235174447, -8022.085788498615, -2461.619968607422, -275.50760215611484, 1.002, -0.006, 0.2, 192.0, 0.0, 0.0, 0.0, 0.0, 0.0, 0.0, 0.0, 0.0, 0.0, 1.679087131728004E9, 0.0, 2023-03-17 14:05:31.728
194.0, -3735.8035130266567, -950.1950085395586, 9623.387113021268, -14355.832559565612, -187500.02235174447, -8035.809759594174, -2478.3837769489023, -306.12949205988554, 1.002, -0.006, 0.2, 192.0, 0.0, 0.0, 0.0, 0.0, 0.0, 0.0, 0.0, 0.0, 0.0, 1.679087131728027E9, 0.0, 2023-03-17 14:05:31.728
195.0, -3770.7616413547566, -1028.8060937888736, 9548.620527818266, -14435.516528548782, -187500.02235174447, -8121.3945891135445, -2563.7003855348094, -398.01751351565287, 1.002, -0.006, 0.2, 192.0, 0.0, 0.0, 0.0, 0.0, 0.0, 0.0, 0.0, 0.0, 0.0, 1.679087131736468E9, 0.0, 2023-03-17 14:05:31.736
196.0, -3751.8967690344775, -1010.9694017135384, 9559.550530856912, -14388.71197565937, -187500.02235174447, -8106.664789517497, -2558.4700773322675, -367.59678931197993, 1.002, -0.006, 0.2, 192.0, 0.0, 0.0, 0.0, 0.0, 0.0, 0.0, 0.0, 0.0, 0.0, 1.679087131736493E9, 0.0, 2023-03-17 14:05:31.736
197.0, -3701.203012609841, -940.1590752791257, 9614.71463617261, -14310.68203576589, -187500.02235174447, -8046.4938934438105, -2497.293352758092, -315.74074217566755, 1.002, -0.006, 0.2, 192.0, 0.0, 0.0, 0.0, 0.0, 0.0, 0.0, 0.0, 0.0, 0.0, 1.67908713174398E9, 0.0, 2023-03-17 14:05:31.743
198.0, -3732.78602752519, -943.8247613697961, 9628.617421223811, -14347.36124841705, -187500.02235174447, -8045.644527154509, -2497.785091136109, -310.89041362886593, 1.002, -0.008, 0.20400000000000001, 192.0, 31.0, 80.0, 255.0, 192.0, 6.0, 96.0, 0.0, 0.0, 0.0, 1.679087131744E9, 0.0, 2023-03-17 14:05:31.744
199.0, -3780.1493740259857, -1029.1190182112477, 9551.258033663993, -14435.896508204522, -187500.02235174447, -8135.319725909201, -2566.9860919697394, -381.45487087427034, 1.002, -0.008, 0.20400000000000001, 192.0, 0.0, 0.0, 0.0, 0.0, 0.0, 0.0, 0.0, 0.0, 0.0, 1.679087131751213E9, 0.0, 2023-03-17 14:05:31.751
200.0, -3772.952112311377, -1027.9567274995718, 9548.59817607381, -14410.437871269927, -187500.02235174447, -8124.009743214816, -2563.9909582127284, -379.9349522513094, 1.002, -0.008, 0.20400000000000001, 192.0, 0.0, 0.0, 0.0, 0.0, 0.0, 0.0, 0.0, 0.0, 0.0, 1.679087131751237E9, 0.0, 2023-03-17 14:05:31.751
201.0, -3699.526631775693, -938.4826944449776, 9620.928421131184, -14303.708291495836, -187500.02235174447, -8041.196530007903, -2516.0464663560947, -298.55225068953644, 1.002, -0.008, 0.20400000000000001, 192.0, 0.0, 0.0, 0.0, 0.0, 0.0, 0.0, 0.0, 0.0, 0.0, 1.679087131757545E9, 0.0, 2023-03-17 14:05:31.757
202.0, -3724.1806059098967, -935.5993194102431, 9634.898261415752, -14332.586745332092, -187500.02235174447, -8035.027448538238, -2480.9318758168074, -295.6241721658912, 1.002, -0.008, 0.20400000000000001, 192.0, 0.0, 0.0, 0.0, 0.0, 0.0, 0.0, 0.0, 0.0, 0.0, 1.679087131765609E9, 0.0, 2023-03-17 14:05:31.765
203.0, -3799.0813015796307, -1038.4843991380214, 9543.256109148993, -14458.360011382105, -187500.02235174447, -8129.865900262106, -2560.7052517777984, -406.4441211753036, 1.002, -0.008, 0.20400000000000001, 192.0, 0.0, 0.0, 0.0, 0.0, 0.0, 0.0, 0.0, 0.0, 0.0, 1.679087131765673E9, 0.0, 2023-03-17 14:05:31.765
204.0, -3806.7703016722567, -1060.6126261487755, 9519.295039092904, -14463.344450395638, -187500.02235174447, -8135.006801486827, -2602.771234842686, -430.3604877424822, 1.002, -0.008, 0.20400000000000001, 192.0, 0.0, 0.0, 0.0, 0.0, 0.0, 0.0, 0.0, 0.0, 0.0, 1.679087131773693E9, 0.0, 2023-03-17 14:05:31.773
205.0, -3729.9920594682767, -968.7022529485528, 9593.055795795417, -14343.136768714998, -187500.02235174447, -8064.598806452609, -2509.2515360416814, -351.5929402819801, 1.002, -0.008, 0.20400000000000001, 192.0, 0.0, 0.0, 0.0, 0.0, 0.0, 0.0, 0.0, 0.0, 0.0, 1.679087131773714E9, 0.0, 2023-03-17 14:05:31.773
206.0, -3706.075692901098, -917.18148197907, 9646.521168532512, -14317.141689913475, -187500.02235174447, -8022.935154787917, -2452.1204772139167, -287.91282032881026, 1.002, -0.008, 0.20400000000000001, 192.0, 0.0, 0.0, 0.0, 0.0, 0.0, 0.0, 0.0, 0.0, 0.0, 1.679087131780779E9, 0.0, 2023-03-17 14:05:31.780
207.0, -3756.4118214144496, -985.7119304790415, 9593.65929289571, -14411.37664453705, -187500.02235174447, -8084.558914251199, -2522.036733870117, -363.21584739873975, 1.002, -0.008, 0.20400000000000001, 192.0, 0.0, 0.0, 0.0, 0.0, 0.0, 0.0, 0.0, 0.0, 0.0, 1.679087131780798E9, 0.0, 2023-03-17 14:05:31.780
208.0, -3778.428289702927, -1038.819675304851, 9537.399952101703, -14444.367819353083, -187500.02235174447, -8150.720077838908, -2583.1687549553817, -427.85709236348777, 1.002, -0.01, 0.202, 192.0, 31.0, 80.0, 255.0, 176.0, 6.0, 80.0, 0.0, 0.0, 0.0, 1.679087131788273E9, 0.0, 2023-03-17 14:05:31.788
209.0, -3727.5780710671033, -977.1065088637482, 9583.578656146366, -14353.865606053545, -187500.02235174447, -8090.258609087302, -2529.3457543070026, -346.76496347963376, 1.002, -0.01, 0.202, 192.0, 0.0, 0.0, 0.0, 0.0, 0.0, 0.0, 0.0, 0.0, 0.0, 1.679087131788298E9, 0.0, 2023-03-17 14:05:31.788
210.0, -3706.3886173234723, -930.8607495857179, 9631.791368936465, -14321.612038804536, -187500.02235174447, -8041.487102685822, -2477.7132246152432, -274.50177365562604, 1.002, -0.01, 0.202, 192.0, 0.0, 0.0, 0.0, 0.0, 0.0, 0.0, 0.0, 0.0, 0.0, 1.679087131796278E9, 0.0, 2023-03-17 14:05:31.796
211.0, -3749.0580974886534, -973.6196367287204, 9613.32882801638, -14396.89271413001, -187500.02235174447, -8070.901998389006, -2510.1232540754386, -304.58722169246937, 1.002, -0.01, 0.202, 192.0, 0.0, 0.0, 0.0, 0.0, 0.0, 0.0, 0.0, 0.0, 0.0, 1.679087131796294E9, 0.0, 2023-03-17 14:05:31.796
212.0, -3784.239743261307, -1046.307509697379, 9539.45631259159, -14460.259909660806, -187500.02235174447, -8151.815313317217, -2591.3047899371136, -403.6054496294796, 1.002, -0.01, 0.202, 192.0, 0.0, 0.0, 0.0, 0.0, 0.0, 0.0, 0.0, 0.0, 0.0, 1.679087131803416E9, 0.0, 2023-03-17 14:05:31.803
213.0, -3758.490533648793, -1010.142387168692, 9562.79153380293, -14398.703205430891, -187500.02235174447, -8107.581211040165, -2564.2815308906474, -369.6531498018682, 1.002, -0.01, 0.202, 192.0, 0.0, 0.0, 0.0, 0.0, 0.0, 0.0, 0.0, 0.0, 0.0, 1.67908713180343E9, 0.0, 2023-03-17 14:05:31.803
214.0, -3703.4828905442823, -933.3194414758017, 9635.077075371395, -14324.763634772735, -187500.02235174447, -8020.945849531395, -2500.936687104307, -300.8768321128884, 1.002, -0.01, 0.202, 192.0, 0.0, 0.0, 0.0, 0.0, 0.0, 0.0, 0.0, 0.0, 0.0, 1.679087131810833E9, 0.0, 2023-03-17 14:05:31.810
215.0, -3760.166914482941, -985.8460409457733, 9602.868211611296, -14407.062757857175, -187500.02235174447, -8072.578379223154, -2518.505158246179, -349.9389111922874, 1.002, -0.01, 0.202, 192.0, 0.0, 0.0, 0.0, 0.0, 0.0, 0.0, 0.0, 0.0, 0.0, 1.679087131810846E9, 0.0, 2023-03-17 14:05:31.810
216.0, -3795.6391329335133, -1061.9760825605492, 9524.100664150794, -14478.186008713963, -187500.02235174447, -8175.530514184298, -2580.12891770946, -426.51598769616936, 1.002, -0.01, 0.202, 192.0, 0.0, 0.0, 0.0, 0.0, 0.0, 0.0, 0.0, 0.0, 0.0, 1.679087131817972E9, 0.0, 2023-03-17 14:05:31.817
217.0, -3753.953129524366, -1012.6457825476865, 9559.103495967805, -14405.341673534116, -187500.02235174447, -8116.544260566743, -2546.109562648483, -388.6521325888792, 1.002, -0.01, 0.202, 192.0, 0.0, 0.0, 0.0, 0.0, 0.0, 0.0, 0.0, 0.0, 0.0, 1.679087131826011E9, 0.0, 2023-03-17 14:05:31.826
218.0, -3696.4420910408608, -937.1415897776592, 9623.789444421463, -14328.384617374495, -187500.02235174447, -8034.043971782205, -2475.6121606364445, -317.26066079862846, 1.006, -0.008, 0.20400000000000001, 192.0, 31.0, 112.0, 255.0, 192.0, 6.0, 96.0, 0.0, 0.0, 0.0, 1.679087131826028E9, 0.0, 2023-03-17 14:05:31.826
219.0, -3730.9978879687656, -954.2183225415138, 9629.66795321321, -14378.877208099033, -187500.02235174447, -8033.194605492903, -2491.101919543972, -321.93217538978763, 1.006, -0.008, 0.20400000000000001, 192.0, 0.0, 0.0, 0.0, 0.0, 0.0, 0.0, 0.0, 0.0, 0.0, 1.679087131833108E9, 0.0, 2023-03-17 14:05:31.833
220.0, -3782.6751211494357, -1046.0392887639152, 9540.08216143634, -14478.923616280988, -187500.02235174447, -8138.851301533139, -2582.006464243706, -417.4188277028594, 1.006, -0.008, 0.20400000000000001, 192.0, 0.0, 0.0, 0.0, 0.0, 0.0, 0.0, 0.0, 0.0, 0.0, 1.679087131833125E9, 0.0, 2023-03-17 14:05:31.833
221.0, -3757.3505946815726, -1018.4795878505216, 9558.522350611967, -14429.57096452367, -187500.02235174447, -8123.98739147036, -2548.7023650052984, -383.82415578653286, 1.006, -0.008, 0.20400000000000001, 192.0, 0.0, 0.0, 0.0, 0.0, 0.0, 0.0, 0.0, 0.0, 0.0, 1.679087131840479E9, 0.0, 2023-03-17 14:05:31.840
222.0, -3703.2593730997296, -947.4680957160111, 9612.479461727078, -14349.328201929118, -187500.02235174447, -8056.2392540263245, -2490.6772363993214, -315.5395764755698, 1.006, -0.008, 0.20400000000000001, 192.0, 0.0, 0.0, 0.0, 0.0, 0.0, 0.0, 0.0, 0.0, 0.0, 1.679087131840492E9, 0.0, 2023-03-17 14:05:31.840
223.0, -3742.8443125300782, -962.5778749677986, 9612.94884836064, -14392.936455361421, -187500.02235174447, -8071.416088511478, -2507.5304517186228, -313.5279194745922, 1.006, -0.008, 0.20400000000000001, 192.0, 0.0, 0.0, 0.0, 0.0, 0.0, 0.0, 0.0, 0.0, 0.0, 1.679087131848514E9, 0.0, 2023-03-17 14:05:31.848
224.0, -3785.1114612950637, -1042.01597476196, 9539.925699225152, -14482.075212249187, -187500.02235174447, -8163.058240778237, -2594.8810690499627, -409.0816270210299, 1.006, -0.008, 0.20400000000000001, 192.0, 0.0, 0.0, 0.0, 0.0, 0.0, 0.0, 0.0, 0.0, 0.0, 1.679087131848527E9, 0.0, 2023-03-17 14:05:31.848
225.0, -3763.497324406782, -1028.1355414552143, 9544.396048116214, -14448.324078121672, -187500.02235174447, -8133.822159030696, -2585.3368741675467, -413.44021718981475, 1.006, -0.008, 0.20400000000000001, 192.0, 0.0, 0.0, 0.0, 0.0, 0.0, 0.0, 0.0, 0.0, 0.0, 1.679087131856611E9, 0.0, 2023-03-17 14:05:31.856
226.0, -3685.1321083464754, -933.4982554314441, 9620.011999608518, -14338.21938493483, -187500.02235174447, -8045.935099832428, -2484.7763758631204, -315.71839043121224, 1.006, -0.008, 0.20400000000000001, 192.0, 0.0, 0.0, 0.0, 0.0, 0.0, 0.0, 0.0, 0.0, 0.0, 1.679087131856624E9, 0.0, 2023-03-17 14:05:31.856
227.0, -3706.20980336783, -928.6032233957319, 9636.462883527623, -14360.816998579145, -187500.02235174447, -8026.086750756115, -2462.871666296919, -296.60764892192475, 1.006, -0.008, 0.20400000000000001, 192.0, 0.0, 0.0, 0.0, 0.0, 0.0, 0.0, 0.0, 0.0, 0.0, 1.67908713186317E9, 0.0, 2023-03-17 14:05:31.863
228.0, -3757.864684804045, -1007.2813638784128, 9572.492190896535, -14456.415409614494, -187500.02235174447, -8102.172088881981, -2536.721829977254, -362.6794055318124, 1.012, -0.006, 0.198, 192.0, 31.0, 160.0, 255.0, 208.0, 6.0, 48.0, 0.0, 0.0, 0.0, 1.679087131863207E9, 0.0, 2023-03-17 14:05:31.863
229.0, -3768.9064465649662, -1037.6797363376304, 9535.097722422806, -14462.517435850792, -187500.02235174447, -8139.812426544718, -2582.5429061106333, -390.03794074510824, 1.012, -0.006, 0.198, 192.0, 0.0, 0.0, 0.0, 0.0, 0.0, 0.0, 0.0, 0.0, 0.0, 1.679087131871134E9, 0.0, 2023-03-17 14:05:31.871
230.0, -3719.4196843409163, -970.6915582050751, 9589.70303412712, -14375.569149919647, -187500.02235174447, -8083.195457839425, -2531.3127078190696, -341.467600043726, 1.012, -0.006, 0.198, 192.0, 0.0, 0.0, 0.0, 0.0, 0.0, 0.0, 0.0, 0.0, 0.0, 1.67908713187116E9, 0.0, 2023-03-17 14:05:31.871
231.0, -3699.3925213089615, -922.0988657592376, 9645.515340032023, -14347.897690283979, -187500.02235174447, -8034.736875860319, -2487.816213109042, -279.7544336026232, 1.012, -0.006, 0.198, 192.0, 0.0, 0.0, 0.0, 0.0, 0.0, 0.0, 0.0, 0.0, 0.0, 1.679087131878155E9, 0.0, 2023-03-17 14:05:31.878
232.0, -3760.166914482941, -1001.2910963643905, 9578.638920621745, -14453.375572368572, -187500.02235174447, -8111.716283764396, -2538.8005422115975, -354.0963356609745, 1.012, -0.006, 0.198, 192.0, 0.0, 0.0, 0.0, 0.0, 0.0, 0.0, 0.0, 0.0, 0.0, 1.679087131886948E9, 0.0, 2023-03-17 14:05:31.886
233.0, -3772.46037393336, -1043.6476521071975, 9535.187129400627, -14481.806991315723, -187500.02235174447, -8159.414906432022, -2583.682845077854, -400.0291705166305, 1.012, -0.006, 0.198, 192.0, 0.0, 0.0, 0.0, 0.0, 0.0, 0.0, 0.0, 0.0, 0.0, 1.679087131886961E9, 0.0, 2023-03-17 14:05:31.886
234.0, -3716.916288961922, -975.7654041964298, 9590.6641591387, -14387.907312858977, -187500.02235174447, -8089.36453930909, -2530.463341529768, -327.3189458035166, 1.012, -0.006, 0.198, 192.0, 0.0, 0.0, 0.0, 0.0, 0.0, 0.0, 0.0, 0.0, 0.0, 1.679087131893511E9, 0.0, 2023-03-17 14:05:31.893
235.0, -3678.851268154534, -914.3651621777013, 9653.271395358015, -14341.907422769955, -187500.02235174447, -8016.542555873699, -2453.461581881235, -268.1985817192294, 1.012, -0.006, 0.198, 192.0, 0.0, 0.0, 0.0, 0.0, 0.0, 0.0, 0.0, 0.0, 0.0, 1.679087131893566E9, 0.0, 2023-03-17 14:05:31.893
236.0, -3734.4177048704273, -969.5069157489438, 9617.37449376279, -14431.04617965772, -187500.02235174447, -8068.018623354272, -2503.7977103945864, -326.49193125867026, 1.012, -0.006, 0.198, 192.0, 0.0, 0.0, 0.0, 0.0, 0.0, 0.0, 0.0, 0.0, 0.0, 1.679087131900702E9, 0.0, 2023-03-17 14:05:31.900
237.0, -3770.0910890210976, -1040.0937247388035, 9540.909175981185, -14496.000349044842, -187500.02235174447, -8151.792961572763, -2588.197897457826, -418.29054573661637, 1.012, -0.006, 0.198, 192.0, 0.0, 0.0, 0.0, 0.0, 0.0, 0.0, 0.0, 0.0, 0.0, 1.679087131900718E9, 0.0, 2023-03-17 14:05:31.900
238.0, -3730.304983890651, -990.8975351926726, 9579.063603766395, -14415.8022899392, -187500.02235174447, -8092.292617832735, -2545.9307486928406, -371.10601319146315, 1.014, -0.004, 0.21, 192.0, 31.0, 176.0, 255.0, 224.0, 6.0, 144.0, 0.0, 0.0, 0.0, 1.679087131908118E9, 0.0, 2023-03-17 14:05:31.908
239.0, -3687.791965936657, -928.7373338624637, 9633.177177092693, -14351.853949052567, -187500.02235174447, -8026.578489134132, -2499.953210348274, -299.62513442339116, 1.014, -0.004, 0.21, 192.0, 0.0, 0.0, 0.0, 0.0, 0.0, 0.0, 0.0, 0.0, 0.0, 1.679087131908159E9, 0.0, 2023-03-17 14:05:31.908
240.0, -3738.888053761489, -965.8412296582735, 9618.80500540793, -14424.452415043404, -187500.02235174447, -8059.010870338782, -2484.642265396388, -319.47348349970383, 1.014, -0.004, 0.21, 192.0, 0.0, 0.0, 0.0, 0.0, 0.0, 0.0, 0.0, 0.0, 0.0, 1.679087131916212E9, 0.0, 2023-03-17 14:05:31.916
241.0, -3783.569190927648, -1046.7768963309404, 9537.958745713086, -14502.907038081532, -187500.02235174447, -8147.367316170611, -2577.2902461636363, -401.81731007305507, 1.014, -0.004, 0.21, 192.0, 0.0, 0.0, 0.0, 0.0, 0.0, 0.0, 0.0, 0.0, 0.0, 1.679087131916268E9, 0.0, 2023-03-17 14:05:31.916
242.0, -3754.914254535944, -1008.6448202901865, 9563.238568692037, -14438.534014050249, -187500.02235174447, -8099.914562691994, -2544.164960880871, -367.4179753563375, 1.014, -0.004, 0.21, 192.0, 0.0, 0.0, 0.0, 0.0, 0.0, 0.0, 0.0, 0.0, 0.0, 1.679087131924161E9, 0.0, 2023-03-17 14:05:31.924
243.0, -3693.044625883654, -930.9948600524498, 9623.185947321172, -14355.452579909872, -187500.02235174447, -8031.607631636576, -2473.980483291207, -303.08965481396376, 1.014, -0.004, 0.21, 192.0, 0.0, 0.0, 0.0, 0.0, 0.0, 0.0, 0.0, 0.0, 0.0, 1.679087131924185E9, 0.0, 2023-03-17 14:05:31.924
244.0, -3735.110608948542, -955.6488341866535, 9612.94884836064, -14410.214353825373, -187500.02235174447, -8054.272300514258, -2491.794823622087, -323.29563180156134, 1.014, -0.004, 0.21, 192.0, 0.0, 0.0, 0.0, 0.0, 0.0, 0.0, 0.0, 0.0, 0.0, 1.679087131930844E9, 0.0, 2023-03-17 14:05:31.930
245.0, -3775.9248943239327, -1036.629204348231, 9534.002486944495, -14497.319101967705, -187500.02235174447, -8145.556824869732, -2584.8004323006194, -394.44123440280373, 1.014, -0.004, 0.21, 192.0, 0.0, 0.0, 0.0, 0.0, 0.0, 0.0, 0.0, 0.0, 0.0, 1.679087131930856E9, 0.0, 2023-03-17 14:05:31.930
246.0, -3756.0318417587096, -1018.5913465727981, 9544.105475438295, -14451.788598512245, -187500.02235174447, -8130.223528173391, -2571.165868182882, -365.7639462666448, 1.014, -0.004, 0.21, 192.0, 0.0, 0.0, 0.0, 0.0, 0.0, 0.0, 0.0, 0.0, 0.0, 1.679087131937776E9, 0.0, 2023-03-17 14:05:31.937
247.0, -3681.466422255805, -925.4516274275336, 9622.291877542959, -14342.354457659061, -187500.02235174447, -8053.132361547037, -2487.6373991533997, -278.32392195748355, 1.014, -0.004, 0.21, 192.0, 0.0, 0.0, 0.0, 0.0, 0.0, 0.0, 0.0, 0.0, 0.0, 1.679087131937794E9, 0.0, 2023-03-17 14:05:31.937
248.0, -3714.524652305204, -935.4205054546005, 9627.969220634606, -14383.816943623657, -187500.02235174447, -8041.844730597107, -2500.7578731486647, -287.26461973960636, 1.018, -0.004, 0.21, 192.0, 31.0, 208.0, 255.0, 224.0, 6.0, 144.0, 0.0, 0.0, 0.0, 1.679087131945828E9, 0.0, 2023-03-17 14:05:31.945
249.0, -3776.0366530462093, -1029.4542943780773, 9546.27359465046, -14491.731165853878, -187500.02235174447, -8132.570461341198, -2570.584722827044, -395.0223797586417, 1.018, -0.004, 0.21, 192.0, 0.0, 0.0, 0.0, 0.0, 0.0, 0.0, 0.0, 0.0, 0.0, 1.679087131953832E9, 0.0, 2023-03-17 14:05:31.953
250.0, -3772.4827256778153, -1033.3882014022115, 9539.389257358225, -14479.415354659004, -187500.02235174447, -8142.673449834997, -2583.615789844488, -402.2419932177059, 1.018, -0.004, 0.21, 192.0, 0.0, 0.0, 0.0, 0.0, 0.0, 0.0, 0.0, 0.0, 0.0, 1.679087131953872E9, 0.0, 2023-03-17 14:05:31.953
251.0, -3695.9056491739334, -935.1522845211368, 9620.436682753168, -14372.708126629368, -187500.02235174447, -8063.1682948074695, -2481.1553932613606, -306.24125078216207, 1.018, -0.004, 0.21, 192.0, 0.0, 0.0, 0.0, 0.0, 0.0, 0.0, 0.0, 0.0, 0.0, 1.67908713196052E9, 0.0, 2023-03-17 14:05:31.960
252.0, -3712.40123658195, -925.1610547496147, 9637.245194583558, -14387.504981458782, -187500.02235174447, -8028.657201368475, -2477.690872870788, -292.2714104975951, 1.018, -0.004, 0.21, 192.0, 0.0, 0.0, 0.0, 0.0, 0.0, 0.0, 0.0, 0.0, 0.0, 1.679087131960531E9, 0.0, 2023-03-17 14:05:31.960
253.0, -3773.8014786006784, -1009.918869724139, 9565.093763481827, -14496.91677056751, -187500.02235174447, -8107.804728484718, -2569.333025137547, -396.36348442596017, 1.018, -0.004, 0.21, 192.0, 0.0, 0.0, 0.0, 0.0, 0.0, 0.0, 0.0, 0.0, 0.0, 1.679087131968449E9, 0.0, 2023-03-17 14:05:31.968
254.0, -3776.9754263133323, -1034.1928642026025, 9535.835329989832, -14504.96339857142, -187500.02235174447, -8137.957231754927, -2583.3699206554797, -418.1117317809739, 1.018, -0.004, 0.21, 192.0, 0.0, 0.0, 0.0, 0.0, 0.0, 0.0, 0.0, 0.0, 0.0, 1.679087131968458E9, 0.0, 2023-03-17 14:05:31.968
255.0, -3709.786082480679, -952.3184242628128, 9603.5164122005, -14401.474821743348, -187500.02235174447, -8068.510361732288, -2504.043579583595, -331.7669429501227, 1.018, -0.004, 0.21, 192.0, 0.0, 0.0, 0.0, 0.0, 0.0, 0.0, 0.0, 0.0, 0.0, 1.679087131976517E9, 0.0, 2023-03-17 14:05:31.976
0.0, -3695.9280009183885, -911.146510976137, 9650.946813934663, -14375.792667364201, -187500.02235174447, -8017.034294251716, -2457.596654605467, -279.93324755826563, 1.018, -0.004, 0.21, 192.0, 0.0, 0.0, 0.0, 0.0, 0.0, 0.0, 0.0, 0.0, 0.0, 1.679087131976537E9, 0.0, 2023-03-17 14:05:31.976
1.0, -3754.7130888358465, -983.4544042890554, 9598.487269698056, -14469.759401054313, -187500.02235174447, -8081.78729793874, -2528.1834635953264, -354.5210188056253, 1.018, -0.004, 0.21, 192.0, 0.0, 0.0, 0.0, 0.0, 0.0, 0.0, 0.0, 0.0, 0.0, 1.679087131983678E9, 0.0, 2023-03-17 14:05:31.983
2.0, -3771.789821599701, -1031.0636199788596, 9546.474760350557, -14502.661168892524, -187500.02235174447, -8144.70745858043, -2587.3038276796137, -414.49074917921416, 1.012, -0.002, 0.20600000000000002, 192.0, 31.0, 160.0, 255.0, 240.0, 6.0, 112.0, 0.0, 0.0, 0.0, 1.679087131983695E9, 0.0, 2023-03-17 14:05:31.983
3.0, -3727.30985013364, -967.9646453815277, 9592.60876090631, -14417.590429495625, -187500.02235174447, -8098.282885346757, -2530.172768851849, -342.56283552203604, 1.012, -0.002, 0.20600000000000002, 192.0, 0.0, 0.0, 0.0, 0.0, 0.0, 0.0, 0.0, 0.0, 0.0, 1.679087131991054E9, 0.0, 2023-03-17 14:05:31.991
4.0, -3702.6111725105256, -919.8636913137069, 9637.871043428308, -14383.504019201282, -187500.02235174447, -8042.694096886408, -2507.776320907631, -280.7155586142014, 1.012, -0.002, 0.20600000000000002, 192.0, 0.0, 0.0, 0.0, 0.0, 0.0, 0.0, 0.0, 0.0, 0.0, 1.679087131991074E9, 0.0, 2023-03-17 14:05:31.991
5.0, -3764.2349319738073, -984.1249566227146, 9596.587371419355, -14476.15199996853, -187500.02235174447, -8098.260533602302, -2526.0600478720726, -349.49187630318124, 1.012, -0.002, 0.20600000000000002, 192.0, 0.0, 0.0, 0.0, 0.0, 0.0, 0.0, 0.0, 0.0, 0.0, 1.679087131999001E9, 0.0, 2023-03-17 14:05:31.999
6.0, -3796.689664922913, -1053.8623993232727, 9527.274611863448, -14535.808805919743, -187500.02235174447, -8170.836647848684, -2591.2824381926584, -433.3109180105827, 1.012, -0.002, 0.20600000000000002, 192.0, 0.0, 0.0, 0.0, 0.0, 0.0, 0.0, 0.0, 0.0, 0.0, 1.679087131999023E9, 0.0, 2023-03-17 14:05:31.999
7.0, -3748.164027710441, -995.6137532727425, 9569.765278072988, -14448.704057777413, -187500.02235174447, -8120.388760613056, -2556.950158709307, -349.4248210698153, 1.012, -0.002, 0.20600000000000002, 192.0, 0.0, 0.0, 0.0, 0.0, 0.0, 0.0, 0.0, 0.0, 0.0, 1.679087132006253E9, 0.0, 2023-03-17 14:05:32.006
8.0, -3685.8026606801345, -914.2310517109695, 9636.328773060892, -14369.690641127901, -187500.02235174447, -8032.9934397928055, -2466.336186687492, -269.04794800853114, 1.012, -0.002, 0.20600000000000002, 192.0, 0.0, 0.0, 0.0, 0.0, 0.0, 0.0, 0.0, 0.0, 0.0, 1.679087132012666E9, 0.0, 2023-03-17 14:05:32.012
9.0, -3739.4244956284165, -956.8111248983295, 9611.607743693321, -14446.714752520891, -187500.02235174447, -8048.907881844984, -2496.980428335718, -315.6513351978463, 1.012, -0.002, 0.20600000000000002, 192.0, 0.0, 0.0, 0.0, 0.0, 0.0, 0.0, 0.0, 0.0, 0.0, 1.679087132012686E9, 0.0, 2023-03-17 14:05:32.012
10.0, -3787.4807462073263, -1042.4853613955213, 9532.661382277178, -14538.40160827656, -187500.02235174447, -8148.75312432684, -2597.7644440846975, -418.17878701433983, 1.012, -0.002, 0.20600000000000002, 192.0, 0.0, 0.0, 0.0, 0.0, 0.0, 0.0, 0.0, 0.0, 0.0, 1.679087132020681E9, 0.0, 2023-03-17 14:05:32.020
11.0, -3760.4798389053153, -1008.2648406344463, 9558.477647123056, -14475.548502868236, -187500.02235174447, -8128.569499083698, -2565.4661733467788, -374.7046440487676, 1.012, -0.002, 0.20600000000000002, 192.0, 0.0, 0.0, 0.0, 0.0, 0.0, 0.0, 0.0, 0.0, 0.0, 1.679087132020699E9, 0.0, 2023-03-17 14:05:32.020
12.0, -3691.0329688826764, -922.0318105258716, 9627.23161306758, -14377.022013309243, -187500.02235174447, -8049.444323711911, -2484.1505270183716, -303.469634469704, 1.006, -0.006, 0.20400000000000001, 192.0, 31.0, 112.0, 255.0, 208.0, 6.0, 96.0, 0.0, 0.0, 0.0, 1.679087132028748E9, 0.0, 2023-03-17 14:05:32.028
13.0, -3730.819074013123, -940.4272962125893, 9626.80692992293, -14428.252211600806, -187500.02235174447, -8051.12070454606, -2505.8987743733855, -310.4433787397598, 1.006, -0.006, 0.20400000000000001, 192.0, 0.0, 0.0, 0.0, 0.0, 0.0, 0.0, 0.0, 0.0, 0.0, 1.67908713202877E9, 0.0, 2023-03-17 14:05:32.028
14.0, -3775.0084728012653, -1022.5923088302981, 9555.41545813268, -14519.044997578265, -187500.02235174447, -8136.750237554341, -2584.7780805561642, -401.8620135619657, 1.006, -0.006, 0.20400000000000001, 192.0, 0.0, 0.0, 0.0, 0.0, 0.0, 0.0, 0.0, 0.0, 0.0, 1.679087132035836E9, 0.0, 2023-03-17 14:05:32.035
15.0, -3756.300062692173, -1005.6943900220859, 9567.641862349732, -14481.136438982063, -187500.02235174447, -8126.624897316086, -2559.6994232773095, -398.7774728271333, 1.006, -0.006, 0.20400000000000001, 192.0, 0.0, 0.0, 0.0, 0.0, 0.0, 0.0, 0.0, 0.0, 0.0, 1.679087132035856E9, 0.0, 2023-03-17 14:05:32.035
16.0, -3683.4780792567826, -915.2815837003689, 9640.732066718587, -14376.172647019941, -187500.02235174447, -8041.732971874831, -2490.073739299028, -283.39776794883824, 1.006, -0.006, 0.20400000000000001, 192.0, 0.0, 0.0, 0.0, 0.0, 0.0, 0.0, 0.0, 0.0, 0.0, 1.679087132043386E9, 0.0, 2023-03-17 14:05:32.043
17.0, -3710.9036697034444, -915.0357145113605, 9654.38898258078, -14409.029711369243, -187500.02235174447, -8020.118834986549, -2466.045614009573, -264.2870264395507, 1.006, -0.006, 0.20400000000000001, 192.0, 0.0, 0.0, 0.0, 0.0, 0.0, 0.0, 0.0, 0.0, 0.0, 1.679087132043416E9, 0.0, 2023-03-17 14:05:32.043
18.0, -3778.1600687694636, -1016.0879511938037, 9563.283272180948, -14527.561012215736, -187500.02235174447, -8130.13412119557, -2564.4379931018348, -384.7405773092005, 1.006, -0.006, 0.20400000000000001, 192.0, 0.0, 0.0, 0.0, 0.0, 0.0, 0.0, 0.0, 0.0, 0.0, 1.679087132051334E9, 0.0, 2023-03-17 14:05:32.051
19.0, -3779.5682286701476, -1031.309489167868, 9542.965536471074, -14518.128576055597, -187500.02235174447, -8155.883330808084, -2610.4825866797673, -412.76966485615554, 1.006, -0.006, 0.20400000000000001, 192.0, 0.0, 0.0, 0.0, 0.0, 0.0, 0.0, 0.0, 0.0, 0.0, 1.679087132051353E9, 0.0, 2023-03-17 14:05:32.051
20.0, -3719.4196843409163, -954.2853777748797, 9601.460051710612, -14418.149223107008, -187500.02235174447, -8073.651262957009, -2530.686858974321, -339.3441843204718, 1.006, -0.006, 0.20400000000000001, 192.0, 0.0, 0.0, 0.0, 0.0, 0.0, 0.0, 0.0, 0.0, 0.0, 1.679087132059322E9, 0.0, 2023-03-17 14:05:32.059
21.0, -3707.729721990791, -912.3535051767237, 9654.076058158405, -14399.641978698013, -187500.02235174447, -8015.2685064397465, -2450.5782068465005, -275.3958434338383, 1.006, -0.006, 0.20400000000000001, 192.0, 0.0, 0.0, 0.0, 0.0, 0.0, 0.0, 0.0, 0.0, 0.0, 1.679087132059341E9, 0.0, 2023-03-17 14:05:32.059
22.0, -3760.5468941386816, -986.0919101347816, 9594.575714418377, -14496.559142656226, -187500.02235174447, -8096.047710901226, -2532.139722363916, -351.16825713732925, 1.012, -0.008, 0.20400000000000001, 192.0, 31.0, 160.0, 255.0, 192.0, 6.0, 96.0, 0.0, 0.0, 0.0, 1.679087132065459E9, 0.0, 2023-03-17 14:05:32.065
23.0, -3768.526466909226, -1018.2337186615132, 9553.26969066497, -14511.132480041086, -187500.02235174447, -8152.798790073251, -2580.0842142205497, -402.5325658956249, 1.012, -0.008, 0.20400000000000001, 192.0, 0.0, 0.0, 0.0, 0.0, 0.0, 0.0, 0.0, 0.0, 0.0, 1.679087132072936E9, 0.0, 2023-03-17 14:05:32.072
24.0, -3698.9678381643107, -935.4652089435112, 9618.268563541003, -14407.286275301729, -187500.02235174447, -8058.340318005124, -2507.463396485257, -311.8068351515335, 1.012, -0.008, 0.20400000000000001, 192.0, 0.0, 0.0, 0.0, 0.0, 0.0, 0.0, 0.0, 0.0, 0.0, 1.679087132072973E9, 0.0, 2023-03-17 14:05:32.072
25.0, -3685.7803089356794, -899.4118451371008, 9654.14311339177, -14392.42236523895, -187500.02235174447, -8021.392884420501, -2469.7783553336094, -260.2637124375954, 1.012, -0.008, 0.20400000000000001, 192.0, 0.0, 0.0, 0.0, 0.0, 0.0, 0.0, 0.0, 0.0, 0.0, 1.679087132080963E9, 0.0, 2023-03-17 14:05:32.080
26.0, -3755.0707167471314, -982.9626659110387, 9584.405670691212, -14498.43668919047, -187500.02235174447, -8100.3168940921905, -2544.2767196031477, -362.23237064270626, 1.012, -0.008, 0.20400000000000001, 192.0, 0.0, 0.0, 0.0, 0.0, 0.0, 0.0, 0.0, 0.0, 0.0, 1.679087132081003E9, 0.0, 2023-03-17 14:05:32.081
27.0, -3771.3204349661396, -1027.9790792440272, 9537.444655590612, -14531.807843662244, -187500.02235174447, -8148.529606882287, -2595.9539527838174, -413.3731619564488, 1.012, -0.008, 0.20400000000000001, 192.0, 0.0, 0.0, 0.0, 0.0, 0.0, 0.0, 0.0, 0.0, 0.0, 1.679087132089052E9, 0.0, 2023-03-17 14:05:32.089
28.0, -3725.856986744045, -968.4787355039997, 9583.80217359092, -14446.58064205416, -187500.02235174447, -8097.053539401715, -2542.98031842474, -353.60459728295774, 1.012, -0.008, 0.20400000000000001, 192.0, 0.0, 0.0, 0.0, 0.0, 0.0, 0.0, 0.0, 0.0, 0.0, 1.679087132089154E9, 0.0, 2023-03-17 14:05:32.089
29.0, -3694.1622131064196, -916.7791505788745, 9632.707790459132, -14399.239647297818, -187500.02235174447, -8049.846655112106, -2474.3604629469473, -291.31028548601694, 1.012, -0.008, 0.20400000000000001, 192.0, 0.0, 0.0, 0.0, 0.0, 0.0, 0.0, 0.0, 0.0, 0.0, 1.679087132095681E9, 0.0, 2023-03-17 14:05:32.095
30.0, -3740.497379362271, -960.1638865666255, 9617.799176907442, -14473.067459233698, -187500.02235174447, -8075.104126346604, -2520.3380012915136, -316.43364625378206, 1.012, -0.008, 0.20400000000000001, 192.0, 0.0, 0.0, 0.0, 0.0, 0.0, 0.0, 0.0, 0.0, 0.0, 1.679087132095739E9, 0.0, 2023-03-17 14:05:32.095
31.0, -3782.5186589382483, -1041.8595125507727, 9537.265841634971, -14547.319954314227, -187500.02235174447, -8154.788095329774, -2607.42039768939, -427.96885108576436, 1.012, -0.008, 0.20400000000000001, 192.0, 0.0, 0.0, 0.0, 0.0, 0.0, 0.0, 0.0, 0.0, 0.0, 1.67908713210437E9, 0.0, 2023-03-17 14:05:32.104
32.0, -3734.4847601037936, -983.0967763777705, 9586.953769559119, -14457.823569515178, -187500.02235174447, -8089.565705009188, -2551.36222259548, -340.14884712086285, 1.012, -0.008, 0.20400000000000001, 192.0, 0.0, 0.0, 0.0, 0.0, 0.0, 0.0, 0.0, 0.0, 0.0, 1.679087132104401E9, 0.0, 2023-03-17 14:05:32.104
33.0, -3670.8493436395343, -897.7354643029529, 9658.4793518161, -14374.205693507874, -187500.02235174447, -8009.993494748294, -2482.8094223510534, -255.34632865742788, 1.008, -0.004, 0.2, 192.0, 31.0, 128.0, 255.0, 224.0, 6.0, 64.0, 0.0, 0.0, 0.0, 1.679087132111848E9, 0.0, 2023-03-17 14:05:32.111
34.0, -3723.4429983428718, -937.1639415221146, 9636.306421316436, -14450.089865933642, -187500.02235174447, -8051.903015601995, -2478.786108349098, -311.60566945143574, 1.008, -0.004, 0.2, 192.0, 0.0, 0.0, 0.0, 0.0, 0.0, 0.0, 0.0, 0.0, 0.0, 1.679087132111872E9, 0.0, 2023-03-17 14:05:32.111
35.0, -3766.313644208151, -1019.887747751206, 9554.499036610012, -14535.87586115311, -187500.02235174447, -8142.382877157078, -2565.9132082358847, -413.9990108011974, 1.008, -0.004, 0.2, 192.0, 0.0, 0.0, 0.0, 0.0, 0.0, 0.0, 0.0, 0.0, 0.0, 1.679087132118691E9, 0.0, 2023-03-17 14:05:32.118
36.0, -3742.21846368533, -990.1599276256476, 9571.821638562875, -14479.705927336923, -187500.02235174447, -8119.070007690193, -2547.852998715997, -384.62881858692396, 1.008, -0.004, 0.2, 192.0, 0.0, 0.0, 0.0, 0.0, 0.0, 0.0, 0.0, 0.0, 0.0, 1.679087132118709E9, 0.0, 2023-03-17 14:05:32.118
37.0, -3687.0543583696317, -919.1037320022264, 9630.584374735878, -14395.506905973782, -187500.02235174447, -8041.978841063838, -2464.816268064531, -298.90987860082134, 1.008, -0.004, 0.2, 192.0, 0.0, 0.0, 0.0, 0.0, 0.0, 0.0, 0.0, 0.0, 0.0, 1.679087132125252E9, 0.0, 2023-03-17 14:05:32.125
38.0, -3729.9697077238216, -939.8685026012067, 9629.891470657763, -14446.804159498712, -187500.02235174447, -8068.040975098726, -2490.878402099419, -269.38322417536074, 1.008, -0.004, 0.2, 192.0, 0.0, 0.0, 0.0, 0.0, 0.0, 0.0, 0.0, 0.0, 0.0, 1.679087132133282E9, 0.0, 2023-03-17 14:05:32.133
39.0, -3784.619722917047, -1028.2920036664013, 9551.526254597457, -14550.44919853797, -187500.02235174447, -8142.964022512916, -2601.0948540085383, -385.94757150978705, 1.008, -0.004, 0.2, 192.0, 0.0, 0.0, 0.0, 0.0, 0.0, 0.0, 0.0, 0.0, 0.0, 1.679087132133302E9, 0.0, 2023-03-17 14:05:32.133
40.0, -3771.141621010497, -1018.1666634281473, 9556.376583144258, -14517.368616744116, -187500.02235174447, -8128.122464194592, -2593.1152812379937, -384.7629290536558, 1.008, -0.004, 0.2, 192.0, 0.0, 0.0, 0.0, 0.0, 0.0, 0.0, 0.0, 0.0, 0.0, 1.679087132141347E9, 0.0, 2023-03-17 14:05:32.141
41.0, -3693.782233450679, -922.6800111150756, 9634.71944746011, -14408.672083457957, -187500.02235174447, -8039.386038707023, -2491.2807334996146, -286.52701217258124, 1.008, -0.004, 0.2, 192.0, 0.0, 0.0, 0.0, 0.0, 0.0, 0.0, 0.0, 0.0, 0.0, 1.679087132141446E9, 0.0, 2023-03-17 14:05:32.141
42.0, -3713.1835476378856, -916.8462058122404, 9652.600843024355, -14431.001476168809, -187500.02235174447, -8018.733026830319, -2472.460564668246, -277.116927756897, 1.008, -0.004, 0.2, 192.0, 0.0, 0.0, 0.0, 0.0, 0.0, 0.0, 0.0, 0.0, 0.0, 1.679087132148368E9, 0.0, 2023-03-17 14:05:32.148
43.0, -3770.046385532187, -1006.0073144444602, 9568.602987361312, -14534.691218696978, -187500.02235174447, -8130.938783995961, -2556.6372342869327, -379.01853072864185, 1.01, -0.008, 0.202, 192.0, 31.0, 144.0, 255.0, 192.0, 6.0, 80.0, 0.0, 0.0, 0.0, 1.679087132148426E9, 0.0, 2023-03-17 14:05:32.148
44.0, -3769.822868087634, -1020.8935762516948, 9541.423266103659, -14526.085797081685, -187500.02235174447, -8166.813333846729, -2588.823746302575, -399.62683911643495, 1.01, -0.008, 0.202, 192.0, 0.0, 0.0, 0.0, 0.0, 0.0, 0.0, 0.0, 0.0, 0.0, 1.679087132155819E9, 0.0, 2023-03-17 14:05:32.155
45.0, -3706.9027074459445, -941.924863091095, 9602.28706625546, -14426.464072044382, -187500.02235174447, -8066.498704731311, -2524.5624809935666, -314.39963750834914, 1.01, -0.008, 0.202, 192.0, 0.0, 0.0, 0.0, 0.0, 0.0, 0.0, 0.0, 0.0, 0.0, 1.679087132155838E9, 0.0, 2023-03-17 14:05:32.155
46.0, -3709.5178615472155, -916.8015023233298, 9638.027505639495, -14431.023827913265, -187500.02235174447, -8021.951678031884, -2512.5148907321563, -279.1956399912405, 1.01, -0.008, 0.202, 192.0, 0.0, 0.0, 0.0, 0.0, 0.0, 0.0, 0.0, 0.0, 0.0, 1.679087132163839E9, 0.0, 2023-03-17 14:05:32.163
47.0, -3760.368080183039, -987.2989043353683, 9581.27642646747, -14530.310276783739, -187500.02235174447, -8108.519984307288, -2527.915242661863, -370.5248678356252, 1.01, -0.008, 0.202, 192.0, 0.0, 0.0, 0.0, 0.0, 0.0, 0.0, 0.0, 0.0, 0.0, 1.679087132163861E9, 0.0, 2023-03-17 14:05:32.163
48.0, -3767.5206384087373, -1015.886785493706, 9544.328992882847, -14548.884576426099, -187500.02235174447, -8154.56457788522, -2578.4078333864013, -414.5354526681248, 1.01, -0.008, 0.202, 192.0, 0.0, 0.0, 0.0, 0.0, 0.0, 0.0, 0.0, 0.0, 0.0, 1.679087132170901E9, 0.0, 2023-03-17 14:05:32.170
49.0, -3723.957088465344, -951.1114300622261, 9588.473688182079, -14465.423162629982, -187500.02235174447, -8100.406301070011, -2543.136780635927, -337.9136726753322, 1.01, -0.008, 0.202, 192.0, 0.0, 0.0, 0.0, 0.0, 0.0, 0.0, 0.0, 0.0, 0.0, 1.679087132170933E9, 0.0, 2023-03-17 14:05:32.170
50.0, -3707.059169657132, -907.0114382519052, 9638.496892273057, -14436.56706053818, -187500.02235174447, -8031.697038614398, -2490.20784976576, -275.79817483403383, 1.01, -0.008, 0.202, 192.0, 0.0, 0.0, 0.0, 0.0, 0.0, 0.0, 0.0, 0.0, 0.0, 1.679087132178441E9, 0.0, 2023-03-17 14:05:32.178
51.0, -3756.07654524762, -967.3164447923238, 9601.169479032693, -14520.944895856965, -187500.02235174447, -8087.397585797023, -2529.0328298846284, -358.8796089744102, 1.01, -0.008, 0.202, 192.0, 0.0, 0.0, 0.0, 0.0, 0.0, 0.0, 0.0, 0.0, 0.0, 1.679087132178458E9, 0.0, 2023-03-17 14:05:32.178
52.0, -3782.9656938273542, -1031.8682827792506, 9535.053018933895, -14567.458876068458, -187500.02235174447, -8162.611205889131, -2602.4359586758565, -419.4751881927476, 1.01, -0.008, 0.202, 192.0, 0.0, 0.0, 0.0, 0.0, 0.0, 0.0, 0.0, 0.0, 0.0, 1.679087132185563E9, 0.0, 2023-03-17 14:05:32.185
53.0, -3747.761696310246, -980.5710292543208, 9575.12969674226, -14491.038261775764, -187500.02235174447, -8101.03214991476, -2554.3797080969466, -339.724163976212, 1.014, -0.006, 0.198, 192.0, 31.0, 176.0, 255.0, 208.0, 6.0, 48.0, 0.0, 0.0, 0.0, 1.679087132185608E9, 0.0, 2023-03-17 14:05:32.185
54.0, -3697.336160819073, -905.3350574177573, 9647.303479588447, -14423.603048754103, -187500.02235174447, -8016.654314595976, -2520.516815247156, -265.0693374954865, 1.014, -0.006, 0.198, 192.0, 0.0, 0.0, 0.0, 0.0, 0.0, 0.0, 0.0, 0.0, 0.0, 1.679087132193631E9, 0.0, 2023-03-17 14:05:32.193
55.0, -3739.8938822619775, -944.6294241701871, 9629.533842746478, -14487.104354751631, -187500.02235174447, -8057.200379037903, -2497.4945184581898, -294.2607157541175, 1.014, -0.006, 0.198, 192.0, 0.0, 0.0, 0.0, 0.0, 0.0, 0.0, 0.0, 0.0, 0.0, 1.679087132200584E9, 0.0, 2023-03-17 14:05:32.200
56.0, -3770.7616413547566, -1017.4737593500328, 9554.744905799022, -14548.705762470456, -187500.02235174447, -8132.771627041296, -2555.3408331085247, -383.3771208974267, 1.014, -0.006, 0.198, 192.0, 0.0, 0.0, 0.0, 0.0, 0.0, 0.0, 0.0, 0.0, 0.0, 1.679087132200619E9, 0.0, 2023-03-17 14:05:32.200
57.0, -3729.589728068081, -969.2610465599355, 9591.178249261171, -14476.599034857636, -187500.02235174447, -8077.272245558768, -2516.627611711933, -355.1915711392845, 1.014, -0.006, 0.198, 192.0, 0.0, 0.0, 0.0, 0.0, 0.0, 0.0, 0.0, 0.0, 0.0, 1.679087132208165E9, 0.0, 2023-03-17 14:05:32.208
58.0, -3703.7511114777462, -926.9044908171286, 9621.934249631673, -14440.366857095583, -187500.02235174447, -8044.862216098573, -2505.1835185508157, -320.7698846781117, 1.014, -0.006, 0.198, 192.0, 0.0, 0.0, 0.0, 0.0, 0.0, 0.0, 0.0, 0.0, 0.0, 1.679087132208183E9, 0.0, 2023-03-17 14:05:32.208
59.0, -3745.9065015204555, -951.4690579735111, 9623.074188598894, -14501.811802603223, -187500.02235174447, -8061.067230828671, -2493.2923905005923, -314.1761200637961, 1.014, -0.006, 0.198, 192.0, 0.0, 0.0, 0.0, 0.0, 0.0, 0.0, 0.0, 0.0, 0.0, 1.679087132216095E9, 0.0, 2023-03-17 14:05:32.216
60.0, -3773.5779611561256, -1019.4854163510105, 9555.661327321688, -14577.204236650972, -187500.02235174447, -8145.892101036561, -2567.4107751143906, -419.22931900373925, 1.014, -0.006, 0.198, 192.0, 0.0, 0.0, 0.0, 0.0, 0.0, 0.0, 0.0, 0.0, 0.0, 1.679087132216118E9, 0.0, 2023-03-17 14:05:32.216
61.0, -3753.1931702128854, -995.8596224617509, 9565.406687904202, -14524.722340669912, -187500.02235174447, -8127.831891516673, -2568.7295280372537, -365.8310015000107, 1.014, -0.006, 0.198, 192.0, 0.0, 0.0, 0.0, 0.0, 0.0, 0.0, 0.0, 0.0, 0.0, 1.67908713222413E9, 0.0, 2023-03-17 14:05:32.224
62.0, -3695.5256695181934, -919.215490724503, 9626.203432822638, -14436.410598326995, -187500.02235174447, -8040.615384652065, -2493.2253352672265, -280.8943725698439, 1.014, -0.006, 0.198, 192.0, 0.0, 0.0, 0.0, 0.0, 0.0, 0.0, 0.0, 0.0, 0.0, 1.679087132224151E9, 0.0, 2023-03-17 14:05:32.224
63.0, -3714.569355794115, -913.6499063551315, 9647.594052266366, -14462.271566661784, -187500.02235174447, -8027.830186823629, -2474.53927690259, -277.4745556681819, 1.01, -0.004, 0.202, 192.0, 31.0, 144.0, 255.0, 224.0, 6.0, 80.0, 0.0, 0.0, 0.0, 1.679087132230833E9, 0.0, 2023-03-17 14:05:32.230
64.0, -3768.302949464673, -1005.9626109555496, 9557.695336067121, -14565.469570811936, -187500.02235174447, -8139.566557355709, -2579.74893805372, -381.723091807734, 1.01, -0.004, 0.202, 192.0, 0.0, 0.0, 0.0, 0.0, 0.0, 0.0, 0.0, 0.0, 0.0, 1.679087132230849E9, 0.0, 2023-03-17 14:05:32.230
65.0, -3771.8345250886114, -1015.9761924715273, 9538.294021879914, -14552.460855538948, -187500.02235174447, -8150.5636156277205, -2596.8480225620297, -388.5180221221474, 1.01, -0.004, 0.202, 192.0, 0.0, 0.0, 0.0, 0.0, 0.0, 0.0, 0.0, 0.0, 0.0, 1.67908713223878E9, 0.0, 2023-03-17 14:05:32.238
66.0, -3703.147614377453, -930.1454937631481, 9610.691322170655, -14448.52524382177, -187500.02235174447, -8062.83301864064, -2510.682047686821, -304.4531112257375, 1.01, -0.004, 0.202, 192.0, 0.0, 0.0, 0.0, 0.0, 0.0, 0.0, 0.0, 0.0, 0.0, 1.679087132238803E9, 0.0, 2023-03-17 14:05:32.238
67.0, -3705.6510097564474, -907.7043423300198, 9649.091619144872, -14447.877043232565, -187500.02235174447, -8028.880718813029, -2479.9036955718634, -272.87009631038865, 1.01, -0.004, 0.202, 192.0, 0.0, 0.0, 0.0, 0.0, 0.0, 0.0, 0.0, 0.0, 0.0, 1.679087132246759E9, 0.0, 2023-03-17 14:05:32.246
68.0, -3763.6761383624244, -998.4747765630218, 9569.541760628434, -14554.271346839829, -187500.02235174447, -8118.757083267818, -2580.6653595763873, -374.86110625995474, 1.01, -0.004, 0.202, 192.0, 0.0, 0.0, 0.0, 0.0, 0.0, 0.0, 0.0, 0.0, 0.0, 1.679087132246775E9, 0.0, 2023-03-17 14:05:32.246
69.0, -3761.820943572634, -1009.0471516903821, 9554.834312776842, -14550.583309004702, -187500.02235174447, -8124.032094959271, -2580.4641938762898, -400.5879641280132, 1.01, -0.004, 0.202, 192.0, 0.0, 0.0, 0.0, 0.0, 0.0, 0.0, 0.0, 0.0, 0.0, 1.679087132252888E9, 0.0, 2023-03-17 14:05:32.252
70.0, -3693.5140125172156, -920.824816325285, 9627.321020045403, -14445.485406575848, -187500.02235174447, -8059.726126161352, -2503.0153993386507, -308.94581186125424, 1.01, -0.004, 0.202, 192.0, 0.0, 0.0, 0.0, 0.0, 0.0, 0.0, 0.0, 0.0, 0.0, 1.679087132260347E9, 0.0, 2023-03-17 14:05:32.260
71.0, -3700.3536463205396, -901.7587783049081, 9650.835055212387, -14450.156921167008, -187500.02235174447, -8042.11295153057, -2475.813326336542, -276.6475411233355, 1.01, -0.004, 0.202, 192.0, 0.0, 0.0, 0.0, 0.0, 0.0, 0.0, 0.0, 0.0, 0.0, 1.679087132260369E9, 0.0, 2023-03-17 14:05:32.260
72.0, -3770.26990297674, -991.9704189265275, 9572.89452229673, -14566.207178378962, -187500.02235174447, -8122.4451211029445, -2576.46323161879, -360.3771758529158, 1.01, -0.004, 0.202, 192.0, 0.0, 0.0, 0.0, 0.0, 0.0, 0.0, 0.0, 0.0, 0.0, 1.679087132268383E9, 0.0, 2023-03-17 14:05:32.268
73.0, -3782.9656938273542, -1030.0354397339154, 9531.677905521145, -14593.02927172533, -187500.02235174447, -8164.689918123475, -2580.710063065298, -391.64726634589033, 1.012, -0.004, 0.20600000000000002, 192.0, 31.0, 160.0, 255.0, 224.0, 6.0, 112.0, 0.0, 0.0, 0.0, 1.679087132268403E9, 0.0, 2023-03-17 14:05:32.268
74.0, -3721.8336727420897, -953.7712876524076, 9595.514487685501, -14491.8205728317, -187500.02235174447, -8091.175030609969, -2530.9550799077847, -329.24119582667305, 1.012, -0.004, 0.20600000000000002, 192.0, 0.0, 0.0, 0.0, 0.0, 0.0, 0.0, 0.0, 0.0, 0.0, 1.679087132276404E9, 0.0, 2023-03-17 14:05:32.276
75.0, -3681.667587955903, -885.9337432305507, 9667.5318083205, -14436.52235704927, -187500.02235174447, -8004.271448167736, -2445.951395744252, -262.81181130550044, 1.012, -0.004, 0.20600000000000002, 192.0, 0.0, 0.0, 0.0, 0.0, 0.0, 0.0, 0.0, 0.0, 0.0, 1.679087132276422E9, 0.0, 2023-03-17 14:05:32.276
76.0, -3741.302042162662, -953.8606946302289, 9618.045046096451, -14531.78549191779, -187500.02235174447, -8064.352937263601, -2509.8550331419747, -311.94094561826535, 1.012, -0.004, 0.20600000000000002, 192.0, 0.0, 0.0, 0.0, 0.0, 0.0, 0.0, 0.0, 0.0, 0.0, 1.679087132283E9, 0.0, 2023-03-17 14:05:32.283
77.0, -3777.623626902536, -1025.9003670096836, 9540.193920158616, -14593.610417081169, -187500.02235174447, -8141.75702831233, -2587.9967317577284, -404.92420255234276, 1.012, -0.004, 0.20600000000000002, 192.0, 0.0, 0.0, 0.0, 0.0, 0.0, 0.0, 0.0, 0.0, 0.0, 1.679087132283014E9, 0.0, 2023-03-17 14:05:32.283
78.0, -3731.8696060025227, -966.6235407142092, 9588.674853882178, -14507.846773606156, -187500.02235174447, -8089.833925942651, -2536.744181721709, -344.46273380073717, 1.012, -0.004, 0.20600000000000002, 192.0, 0.0, 0.0, 0.0, 0.0, 0.0, 0.0, 0.0, 0.0, 0.0, 1.679087132291051E9, 0.0, 2023-03-17 14:05:32.291
79.0, -3680.8629251555117, -894.6509235681204, 9655.730087248097, -14437.99757218332, -187500.02235174447, -8017.369570418546, -2479.7025298717654, -259.74962231512336, 1.012, -0.004, 0.20600000000000002, 192.0, 0.0, 0.0, 0.0, 0.0, 0.0, 0.0, 0.0, 0.0, 0.0, 1.67908713229107E9, 0.0, 2023-03-17 14:05:32.291
80.0, -3733.590690325581, -939.4661712010112, 9633.735970704076, -14516.832174877189, -187500.02235174447, -8039.676611384942, -2518.6839722018212, -299.4910239566593, 1.012, -0.004, 0.20600000000000002, 192.0, 0.0, 0.0, 0.0, 0.0, 0.0, 0.0, 0.0, 0.0, 0.0, 1.679087132299044E9, 0.0, 2023-03-17 14:05:32.299
81.0, -3774.9414175678994, -1020.2453756624909, 9553.001469731507, -14593.476306614437, -187500.02235174447, -8133.866862519606, -2591.2153829592926, -406.60058338649077, 1.012, -0.004, 0.20600000000000002, 192.0, 0.0, 0.0, 0.0, 0.0, 0.0, 0.0, 0.0, 0.0, 0.0, 1.679087132299072E9, 0.0, 2023-03-17 14:05:32.299
82.0, -3749.147504466475, -988.662360747142, 9572.201618218616, -14532.903079140555, -187500.02235174447, -8110.442234330444, -2558.6935947768206, -400.81148157256627, 1.012, -0.004, 0.20600000000000002, 192.0, 0.0, 0.0, 0.0, 0.0, 0.0, 0.0, 0.0, 0.0, 0.0, 1.679087132306131E9, 0.0, 2023-03-17 14:05:32.306
83.0, -3684.8415356685564, -904.7092085730087, 9646.76703772152, -14450.134569422553, -187500.02235174447, -8030.244175224802, -2476.081547270006, -294.3054192430281, 1.004, -0.008, 0.20600000000000002, 192.0, 31.0, 96.0, 255.0, 192.0, 6.0, 112.0, 0.0, 0.0, 0.0, 1.679087132306148E9, 0.0, 2023-03-17 14:05:32.306
84.0, -3732.0931234470754, -933.5429589203547, 9637.356953305836, -14515.424014976505, -187500.02235174447, -8044.25871899828, -2504.4459109837903, -295.244192510151, 1.004, -0.008, 0.20600000000000002, 192.0, 0.0, 0.0, 0.0, 0.0, 0.0, 0.0, 0.0, 0.0, 0.0, 1.679087132312702E9, 0.0, 2023-03-17 14:05:32.312
85.0, -3780.1493740259857, -1022.0558669633707, 9551.839179019831, -14601.880562529632, -187500.02235174447, -8138.068990477203, -2622.5748804300883, -378.4373853728039, 1.004, -0.008, 0.20600000000000002, 192.0, 0.0, 0.0, 0.0, 0.0, 0.0, 0.0, 0.0, 0.0, 0.0, 1.67908713232062E9, 0.0, 2023-03-17 14:05:32.320
86.0, -3757.1941324703853, -997.3795410847117, 9570.122905984272, -14553.243166594884, -187500.02235174447, -8129.128292695081, -2534.039620642617, -348.6201582694243, 1.004, -0.008, 0.20600000000000002, 192.0, 0.0, 0.0, 0.0, 0.0, 0.0, 0.0, 0.0, 0.0, 0.0, 1.679087132320678E9, 0.0, 2023-03-17 14:05:32.320
87.0, -3697.1349951189754, -923.1493977486369, 9626.292839800459, -14465.266700418795, -187500.02235174447, -8062.408335495989, -2497.338056247003, -280.0673580249975, 1.004, -0.008, 0.20600000000000002, 192.0, 0.0, 0.0, 0.0, 0.0, 0.0, 0.0, 0.0, 0.0, 0.0, 1.679087132328655E9, 0.0, 2023-03-17 14:05:32.328
88.0, -3722.9289082203995, -922.7247146039862, 9643.235462097582, -14501.901209581043, -187500.02235174447, -8024.767997833253, -2486.8997915863742, -298.1275675448856, 1.004, -0.008, 0.20600000000000002, 192.0, 0.0, 0.0, 0.0, 0.0, 0.0, 0.0, 0.0, 0.0, 0.0, 1.679087132328748E9, 0.0, 2023-03-17 14:05:32.328
89.0, -3777.8694960915445, -1017.8760907502283, 9559.215254690082, -14607.535553876825, -187500.02235174447, -8133.643345075053, -2592.6682463488874, -397.57047862654673, 1.004, -0.008, 0.20600000000000002, 192.0, 0.0, 0.0, 0.0, 0.0, 0.0, 0.0, 0.0, 0.0, 0.0, 1.679087132335833E9, 0.0, 2023-03-17 14:05:32.335
90.0, -3780.7975746151897, -1036.1151142257588, 9532.46021657708, -14592.60458858068, -187500.02235174447, -8166.2992437242565, -2594.0540545051163, -400.2526879611836, 1.004, -0.008, 0.20600000000000002, 192.0, 0.0, 0.0, 0.0, 0.0, 0.0, 0.0, 0.0, 0.0, 0.0, 1.679087132335904E9, 0.0, 2023-03-17 14:05:32.335
91.0, -3702.477062043794, -944.0706305588044, 9609.931362859174, -14474.00623250082, -187500.02235174447, -8070.320853033168, -2497.650980669377, -327.855387670444, 1.004, -0.008, 0.20600000000000002, 192.0, 0.0, 0.0, 0.0, 0.0, 0.0, 0.0, 0.0, 0.0, 0.0, 1.679087132343291E9, 0.0, 2023-03-17 14:05:32.343
92.0, -3701.605344010037, -917.18148197907, 9650.320965089913, -14478.63304360307, -187500.02235174447, -8031.719390358853, -2470.6724251118217, -298.52989894508113, 1.004, -0.008, 0.20600000000000002, 192.0, 0.0, 0.0, 0.0, 0.0, 0.0, 0.0, 0.0, 0.0, 0.0, 1.679087132343409E9, 0.0, 2023-03-17 14:05:32.343
93.0, -3761.731536594813, -1005.8508522332731, 9575.017938019984, -14606.88735328762, -187500.02235174447, -8119.137062923559, -2566.293187891625, -375.55401033806925, 1.006, -0.006, 0.202, 192.0, 31.0, 112.0, 255.0, 208.0, 6.0, 80.0, 0.0, 0.0, 0.0, 1.679087132351331E9, 0.0, 2023-03-17 14:05:32.351
94.0, -3774.516734423248, -1038.3949921602002, 9536.215309645571, -14620.521917405358, -187500.02235174447, -8143.723981824396, -2594.389330671946, -394.0165512581529, 1.006, -0.006, 0.202, 192.0, 0.0, 0.0, 0.0, 0.0, 0.0, 0.0, 0.0, 0.0, 0.0, 1.679087132351368E9, 0.0, 2023-03-17 14:05:32.351
95.0, -3706.410969067928, -951.1561335511367, 9606.176269790682, -14510.216058518417, -187500.02235174447, -8063.704736674397, -2518.482806501723, -322.178044578796, 1.006, -0.006, 0.202, 192.0, 0.0, 0.0, 0.0, 0.0, 0.0, 0.0, 0.0, 0.0, 0.0, 1.679087132359345E9, 0.0, 2023-03-17 14:05:32.359
96.0, -3695.7715387072017, -909.6489440976316, 9644.174235364704, -14494.100450766142, -187500.02235174447, -8027.1819862344255, -2480.8871723278967, -290.66208489681304, 1.006, -0.006, 0.202, 192.0, 0.0, 0.0, 0.0, 0.0, 0.0, 0.0, 0.0, 0.0, 0.0, 1.679087132359501E9, 0.0, 2023-03-17 14:05:32.359
97.0, -3754.8248475581227, -985.4437095455778, 9580.427060178168, -14592.068146713753, -187500.02235174447, -8108.341170351645, -2558.4700773322675, -343.0322221555975, 1.006, -0.006, 0.202, 192.0, 0.0, 0.0, 0.0, 0.0, 0.0, 0.0, 0.0, 0.0, 0.0, 1.67908713236581E9, 0.0, 2023-03-17 14:05:32.365
98.0, -3780.395243214994, -1041.211311961569, 9527.40872233018, -14629.149690765107, -187500.02235174447, -8159.0796302651925, -2616.204633260326, -404.54422289660255, 1.006, -0.006, 0.202, 192.0, 0.0, 0.0, 0.0, 0.0, 0.0, 0.0, 0.0, 0.0, 0.0, 1.67908713236583E9, 0.0, 2023-03-17 14:05:32.365
99.0, -3713.719989504813, -962.3096540343349, 9600.118947043295, -14517.815651633222, -187500.02235174447, -8085.1177078625815, -2583.4593276333007, -328.14596034836296, 1.006, -0.006, 0.202, 192.0, 0.0, 0.0, 0.0, 0.0, 0.0, 0.0, 0.0, 0.0, 0.0, 1.679087132372996E9, 0.0, 2023-03-17 14:05:32.372
100.0, -3698.721968975302, -923.663487871109, 9640.307383573936, -14493.698119365947, -187500.02235174447, -8033.9322130599285, -2470.560666389545, -282.3248842149835, 1.006, -0.006, 0.202, 192.0, 0.0, 0.0, 0.0, 0.0, 0.0, 0.0, 0.0, 0.0, 0.0, 1.679087132380981E9, 0.0, 2023-03-17 14:05:32.380
101.0, -3763.8773040625224, -991.1210526372257, 9592.18407776166, -14591.241132168905, -187500.02235174447, -8082.882533417051, -2509.787977908609, -367.32856837851625, 1.006, -0.006, 0.202, 192.0, 0.0, 0.0, 0.0, 0.0, 0.0, 0.0, 0.0, 0.0, 0.0, 1.679087132381E9, 0.0, 2023-03-17 14:05:32.381
102.0, -3794.5438974552035, -1056.4775534245437, 9523.787739728421, -14651.032048586852, -187500.02235174447, -8152.552920884243, -2603.6653046208985, -431.1427987984179, 1.006, -0.006, 0.202, 192.0, 0.0, 0.0, 0.0, 0.0, 0.0, 0.0, 0.0, 0.0, 0.0, 1.679087132388072E9, 0.0, 2023-03-17 14:05:32.388
103.0, -3746.822923043123, -995.4125875726447, 9572.358080429804, -14562.69795449948, -187500.02235174447, -8105.658961017009, -2555.005556941695, -342.00404191065337, 1.014, 0.002, 0.196, 192.0, 31.0, 176.0, 0.0, 16.0, 6.0, 32.0, 0.0, 0.0, 0.0, 1.679087132388119E9, 0.0, 2023-03-17 14:05:32.388
104.0, -3685.020349624199, -912.6440778546427, 9645.917671432218, -14483.304558194228, -187500.02235174447, -8037.508492172778, -2471.4547361677573, -267.4833258966596, 1.014, 0.002, 0.196, 192.0, 0.0, 0.0, 0.0, 0.0, 0.0, 0.0, 0.0, 0.0, 0.0, 1.679087132395478E9, 0.0, 2023-03-17 14:05:32.395
105.0, -3744.274824175218, -964.6789389465976, 9613.99938035004, -14568.621166780134, -187500.02235174447, -8075.104126346604, -2505.429387739824, -338.83009419799976, 1.014, 0.002, 0.196, 192.0, 0.0, 0.0, 0.0, 0.0, 0.0, 0.0, 0.0, 0.0, 0.0, 1.679087132395493E9, 0.0, 2023-03-17 14:05:32.395
106.0, -3790.6770456644354, -1054.175323745647, 9520.79260597141, -14654.831845144254, -187500.02235174447, -8181.096098553669, -2630.576804945088, -430.89692960940954, 1.014, 0.002, 0.196, 192.0, 0.0, 0.0, 0.0, 0.0, 0.0, 0.0, 0.0, 0.0, 0.0, 1.67908713240369E9, 0.0, 2023-03-17 14:05:32.403
107.0, -3749.2592631887514, -1005.1802998996139, 9564.04323149243, -14576.109001172663, -187500.02235174447, -8121.37223736909, -2572.84224901703, -348.9777861807092, 1.014, 0.002, 0.196, 192.0, 0.0, 0.0, 0.0, 0.0, 0.0, 0.0, 0.0, 0.0, 0.0, 1.679087132403729E9, 0.0, 2023-03-17 14:05:32.403
108.0, -3688.9766083927884, -923.9987640379387, 9640.106217873838, -14491.127668753585, -187500.02235174447, -8035.318021216157, -2509.9891436087064, -257.827372291967, 1.014, 0.002, 0.196, 192.0, 0.0, 0.0, 0.0, 0.0, 0.0, 0.0, 0.0, 0.0, 0.0, 1.679087132411678E9, 0.0, 2023-03-17 14:05:32.411
109.0, -3732.3613443805393, -946.2387497709692, 9638.966278906617, -14548.63870723709, -187500.02235174447, -8041.196530007903, -2552.9938999407173, -289.8350703519667, 1.014, 0.002, 0.196, 192.0, 0.0, 0.0, 0.0, 0.0, 0.0, 0.0, 0.0, 0.0, 0.0, 1.679087132411706E9, 0.0, 2023-03-17 14:05:32.411
110.0, -3788.687740407913, -1039.8478555497952, 9549.022859218461, -14656.61998470068, -187500.02235174447, -8151.949423783949, -2577.9831502417505, -409.37219969894886, 1.014, 0.002, 0.196, 192.0, 0.0, 0.0, 0.0, 0.0, 0.0, 0.0, 0.0, 0.0, 0.0, 1.679087132418154E9, 0.0, 2023-03-17 14:05:32.418
111.0, -3776.0366530462093, -1025.4533321205774, 9553.56026334289, -14618.17498423755, -187500.02235174447, -8143.165188213014, -2596.4903946507447, -395.3129524365607, 1.014, 0.002, 0.196, 192.0, 0.0, 0.0, 0.0, 0.0, 0.0, 0.0, 0.0, 0.0, 0.0, 1.679087132418183E9, 0.0, 2023-03-17 14:05:32.418
112.0, -3701.538288776671, -933.341793220257, 9629.913822402219, -14510.283113751784, -187500.02235174447, -8065.314062275179, -2497.2262975247263, -331.9681086502205, 1.014, 0.002, 0.196, 192.0, 0.0, 0.0, 0.0, 0.0, 0.0, 0.0, 0.0, 0.0, 0.0, 1.679087132426191E9, 0.0, 2023-03-17 14:05:32.426
113.0, -3734.6188705705254, -941.3884212241676, 9638.273374828503, -14554.740733473389, -187500.02235174447, -8053.02060282476, -2483.234105495704, -324.86025391343287, 1.008, 0.002, 0.198, 192.0, 31.0, 128.0, 0.0, 16.0, 6.0, 48.0, 0.0, 0.0, 0.0, 1.679087132426204E9, 0.0, 2023-03-17 14:05:32.426
114.0, -3790.3864729865163, -1032.0023932459824, 9555.08018196585, -14659.078676590763, -187500.02235174447, -8136.683182320975, -2577.491411863734, -399.4480251607925, 1.008, 0.002, 0.198, 192.0, 0.0, 0.0, 0.0, 0.0, 0.0, 0.0, 0.0, 0.0, 0.0, 1.679087132433287E9, 0.0, 2023-03-17 14:05:32.433
115.0, -3791.772281142745, -1045.435791663622, 9537.198786401605, -14644.28182176135, -187500.02235174447, -8151.99412727286, -2595.8868975504515, -418.3576009699823, 1.008, 0.002, 0.198, 192.0, 0.0, 0.0, 0.0, 0.0, 0.0, 0.0, 0.0, 0.0, 0.0, 1.679087132433307E9, 0.0, 2023-03-17 14:05:32.433
116.0, -3723.6441640429694, -961.2814737893908, 9604.410481978714, -14534.7806256748, -187500.02235174447, -8068.666823943476, -2518.7957309240974, -309.146977561352, 1.008, 0.002, 0.198, 192.0, 0.0, 0.0, 0.0, 0.0, 0.0, 0.0, 0.0, 0.0, 0.0, 1.679087132441377E9, 0.0, 2023-03-17 14:05:32.441
117.0, -3716.245736628263, -929.8772728296844, 9645.984726665583, -14526.085797081685, -187500.02235174447, -8033.4628264263665, -2483.658788640355, -277.8098318350115, 1.008, 0.002, 0.198, 192.0, 0.0, 0.0, 0.0, 0.0, 0.0, 0.0, 0.0, 0.0, 0.0, 1.679087132447783E9, 0.0, 2023-03-17 14:05:32.447
118.0, -3772.013339044254, -1015.663268049153, 9568.692394339132, -14625.685170374534, -187500.02235174447, -8138.426618388488, -2575.74797579622, -387.98158025521997, 1.008, 0.002, 0.198, 192.0, 0.0, 0.0, 0.0, 0.0, 0.0, 0.0, 0.0, 0.0, 0.0, 1.679087132447807E9, 0.0, 2023-03-17 14:05:32.447
119.0, -3780.8422781041004, -1042.239492206513, 9536.036495689928, -14631.831900099744, -187500.02235174447, -8160.979528543893, -2601.7207028532866, -412.9261270673427, 1.008, 0.002, 0.198, 192.0, 0.0, 0.0, 0.0, 0.0, 0.0, 0.0, 0.0, 0.0, 0.0, 1.679087132456001E9, 0.0, 2023-03-17 14:05:32.456
120.0, -3713.1164924045197, -955.9841103534831, 9613.261772783015, -14528.410378505037, -187500.02235174447, -8056.708640659886, -2508.4692249857458, -317.662992198824, 1.008, 0.002, 0.198, 192.0, 0.0, 0.0, 0.0, 0.0, 0.0, 0.0, 0.0, 0.0, 0.0, 1.679087132456028E9, 0.0, 2023-03-17 14:05:32.456
121.0, -3686.0708816135984, -906.8549760407182, 9668.425878098713, -14495.530962411282, -187500.02235174447, -7994.928418985417, -2489.9619805767516, -273.3841864328607, 1.008, 0.002, 0.198, 192.0, 0.0, 0.0, 0.0, 0.0, 0.0, 0.0, 0.0, 0.0, 0.0, 1.679087132463968E9, 0.0, 2023-03-17 14:05:32.463
122.0, -3758.8705133045332, -998.0947969072815, 9591.80409810592, -14620.74543484991, -187500.02235174447, -8093.991350411338, -2544.164960880871, -366.27803638911683, 1.008, 0.002, 0.198, 192.0, 0.0, 0.0, 0.0, 0.0, 0.0, 0.0, 0.0, 0.0, 0.0, 1.679087132463991E9, 0.0, 2023-03-17 14:05:32.463
123.0, -3777.5565716691704, -1050.7778585884403, 9532.191995643616, -14660.24096730244, -187500.02235174447, -8155.123371496603, -2596.8033190731194, -406.689990364312, 1.006, 0.0, 0.198, 192.0, 31.0, 112.0, 0.0, 0.0, 6.0, 48.0, 0.0, 0.0, 0.0, 1.679087132470866E9, 0.0, 2023-03-17 14:05:32.470
124.0, -3720.917251219422, -981.8674304327286, 9586.082051525362, -14566.162474890052, -187500.02235174447, -8081.74259444983, -2520.9862018807175, -339.2324255981953, 1.006, 0.0, 0.198, 192.0, 0.0, 0.0, 0.0, 0.0, 0.0, 0.0, 0.0, 0.0, 0.0, 1.6790871324709E9, 0.0, 2023-03-17 14:05:32.470
125.0, -3694.564544506615, -930.3466594632458, 9633.423046281701, -14526.085797081685, -187500.02235174447, -8026.511433900766, -2479.233143238204, -281.45316618122655, 1.006, 0.0, 0.198, 192.0, 0.0, 0.0, 0.0, 0.0, 0.0, 0.0, 0.0, 0.0, 0.0, 1.679087132478486E9, 0.0, 2023-03-17 14:05:32.478
126.0, -3752.0979347345756, -985.2201921010247, 9600.253057510026, -14615.313960947271, -187500.02235174447, -8084.670672973475, -2568.3719001259688, -335.1420563628741, 1.006, 0.0, 0.198, 192.0, 0.0, 0.0, 0.0, 0.0, 0.0, 0.0, 0.0, 0.0, 0.0, 1.679087132478509E9, 0.0, 2023-03-17 14:05:32.478
127.0, -3773.0415192891983, -1042.1947887176025, 9541.244452148016, -14667.70644995051, -187500.02235174447, -8173.742374627874, -2584.934542767351, -414.334286968027, 1.006, 0.0, 0.198, 192.0, 0.0, 0.0, 0.0, 0.0, 0.0, 0.0, 0.0, 0.0, 0.0, 1.6790871324864E9, 0.0, 2023-03-17 14:05:32.486
128.0, -3733.523635092215, -992.3951020711783, 9579.175362488671, -14588.804792023277, -187500.02235174447, -8104.787242983251, -2538.688783489321, -362.85821948745485, 1.006, 0.0, 0.198, 192.0, 0.0, 0.0, 0.0, 0.0, 0.0, 0.0, 0.0, 0.0, 0.0, 1.67908713248642E9, 0.0, 2023-03-17 14:05:32.486
129.0, -3681.466422255805, -917.3602959347124, 9646.38705806578, -14513.367654486616, -187500.02235174447, -8027.316096701157, -2473.578151891011, -286.19173600575164, 1.006, 0.0, 0.198, 192.0, 0.0, 0.0, 0.0, 0.0, 0.0, 0.0, 0.0, 0.0, 0.0, 1.679087132494656E9, 0.0, 2023-03-17 14:05:32.494
130.0, -3738.97746073931, -965.1483255801589, 9619.900240886242, -14592.470478113948, -187500.02235174447, -8076.735803691841, -2519.2874693021145, -336.46080928573724, 1.006, 0.0, 0.198, 192.0, 0.0, 0.0, 0.0, 0.0, 0.0, 0.0, 0.0, 0.0, 0.0, 1.679087132494716E9, 0.0, 2023-03-17 14:05:32.494
131.0, -3783.2562665052733, -1052.5659981448648, 9533.354286355292, -14678.547046011336, -187500.02235174447, -8181.610188676142, -2624.228909519781, -430.94163309832015, 1.006, 0.0, 0.198, 192.0, 0.0, 0.0, 0.0, 0.0, 0.0, 0.0, 0.0, 0.0, 0.0, 1.679087132500653E9, 0.0, 2023-03-17 14:05:32.500
132.0, -3757.305891192662, -1021.3182593963456, 9554.789609287931, -14624.56758315177, -187500.02235174447, -8153.402287173544, -2624.5418339421553, -378.39268188389326, 1.006, 0.0, 0.198, 192.0, 0.0, 0.0, 0.0, 0.0, 0.0, 0.0, 0.0, 0.0, 0.0, 1.67908713250813E9, 0.0, 2023-03-17 14:05:32.508
133.0, -3686.629675224981, -933.7664763649078, 9625.085845599871, -14532.523099484813, -187500.02235174447, -8066.811629153684, -2521.7014577032874, -314.75726541963405, 1.008, -0.008, 0.202, 192.0, 31.0, 128.0, 255.0, 192.0, 6.0, 80.0, 0.0, 0.0, 0.0, 1.679087132508158E9, 0.0, 2023-03-17 14:05:32.508
134.0, -3719.6879052743802, -948.406868983134, 9625.398770022246, -14580.020556452342, -187500.02235174447, -8073.472449001366, -2482.429442695313, -344.1498093783628, 1.008, -0.008, 0.202, 192.0, 0.0, 0.0, 0.0, 0.0, 0.0, 0.0, 0.0, 0.0, 0.0, 1.679087132516185E9, 0.0, 2023-03-17 14:05:32.516
135.0, -3763.720841851335, -1032.7400008130076, 9547.614699317777, -14674.411973287104, -187500.02235174447, -8159.124333754103, -2584.912191022896, -402.13023449542936, 1.008, -0.008, 0.202, 192.0, 0.0, 0.0, 0.0, 0.0, 0.0, 0.0, 0.0, 0.0, 0.0, 1.679087132516247E9, 0.0, 2023-03-17 14:05:32.516
136.0, -3750.823885300623, -1020.2453756624909, 9552.532083097945, -14639.744417636923, -187500.02235174447, -8147.255557448335, -2589.6507608474208, -377.00687372766424, 1.008, -0.008, 0.202, 192.0, 0.0, 0.0, 0.0, 0.0, 0.0, 0.0, 0.0, 0.0, 0.0, 1.679087132523251E9, 0.0, 2023-03-17 14:05:32.523
137.0, -3672.369262262495, -924.9151855606062, 9635.993496894062, -14528.566840716225, -187500.02235174447, -8050.092524301115, -2498.9026783588743, -283.2189539931958, 1.008, -0.008, 0.202, 192.0, 0.0, 0.0, 0.0, 0.0, 0.0, 0.0, 0.0, 0.0, 0.0, 1.679087132523271E9, 0.0, 2023-03-17 14:05:32.523
138.0, -3700.0630736426206, -926.3233454612906, 9658.009965182539, -14561.110980643152, -187500.02235174447, -8024.522128644244, -2492.8006521225757, -279.1732882467852, 1.008, -0.008, 0.202, 192.0, 0.0, 0.0, 0.0, 0.0, 0.0, 0.0, 0.0, 0.0, 0.0, 1.679087132530688E9, 0.0, 2023-03-17 14:05:32.530
139.0, -3770.7839930992122, -1031.5106548679657, 9567.84302804983, -14674.926063409575, -187500.02235174447, -8138.001935243838, -2592.6235428599766, -395.335304181016, 1.008, -0.008, 0.202, 192.0, 0.0, 0.0, 0.0, 0.0, 0.0, 0.0, 0.0, 0.0, 0.0, 1.679087132530706E9, 0.0, 2023-03-17 14:05:32.530
140.0, -3773.600312900581, -1045.4804951525325, 9545.290117894427, -14661.492664991936, -187500.02235174447, -8164.175828001003, -2618.0821797945714, -402.3314001955271, 1.008, -0.008, 0.202, 192.0, 0.0, 0.0, 0.0, 0.0, 0.0, 0.0, 0.0, 0.0, 0.0, 1.679087132538797E9, 0.0, 2023-03-17 14:05:32.538
141.0, -3698.297285830651, -950.1056015617373, 9621.71073218712, -14550.851529938165, -187500.02235174447, -8072.041937356226, -2509.1844808083156, -323.7426666906675, 1.008, -0.008, 0.202, 192.0, 0.0, 0.0, 0.0, 0.0, 0.0, 0.0, 0.0, 0.0, 0.0, 1.679087132538816E9, 0.0, 2023-03-17 14:05:32.538
142.0, -3679.4547652548276, -899.8141765372965, 9686.799012040974, -14532.456044251448, -187500.02235174447, -8005.63490457951, -2453.327471414503, -265.02463400657587, 1.008, -0.008, 0.202, 192.0, 0.0, 0.0, 0.0, 0.0, 0.0, 0.0, 0.0, 0.0, 0.0, 1.679087132546708E9, 0.0, 2023-03-17 14:05:32.546
143.0, -3747.851103288067, -996.5525265398654, 9604.14226104525, -14652.66372593209, -187500.02235174447, -8092.69494923293, -2585.001598000717, -367.5073823341587, 1.014, -0.01, 0.20400000000000001, 192.0, 31.0, 176.0, 255.0, 176.0, 6.0, 96.0, 0.0, 0.0, 0.0, 1.679087132546728E9, 0.0, 2023-03-17 14:05:32.546
144.0, -3785.200868272885, -1061.529047671443, 9533.30958286638, -14701.43523233357, -187500.02235174447, -8173.943540327971, -2640.5009794832445, -429.1758452863509, 1.014, -0.01, 0.20400000000000001, 192.0, 0.0, 0.0, 0.0, 0.0, 0.0, 0.0, 0.0, 0.0, 0.0, 1.67908713255343E9, 0.0, 2023-03-17 14:05:32.553
145.0, -3710.5013383032488, -971.8314971722958, 9606.198621535137, -14583.21685590945, -187500.02235174447, -8096.047710901226, -2555.7431645087204, -352.19643738227336, 1.014, -0.01, 0.20400000000000001, 192.0, 0.0, 0.0, 0.0, 0.0, 0.0, 0.0, 0.0, 0.0, 0.0, 1.679087132553444E9, 0.0, 2023-03-17 14:05:32.553
146.0, -3697.559678263626, -933.1629792646146, 9643.950717920152, -14561.625070765624, -187500.02235174447, -8036.748532861297, -2455.3167766710253, -299.4239687232934, 1.014, -0.01, 0.20400000000000001, 192.0, 0.0, 0.0, 0.0, 0.0, 0.0, 0.0, 0.0, 0.0, 0.0, 1.679087132560418E9, 0.0, 2023-03-17 14:05:32.560
