%OpenBCI Raw EEG Data
%Number of channels = 8
%Sample Rate = 250 Hz
%Board = OpenBCI_GUI$BoardCytonSerial
Sample Index, EXG Channel 0, EXG Channel 1, EXG Channel 2, EXG Channel 3, EXG Channel 4, EXG Channel 5, EXG Channel 6, EXG Channel 7, Accel Channel 0, Accel Channel 1, Accel Channel 2, Other, Other, Other, Other, Other, Other, Other, Analog Channel 0, Analog Channel 1, Analog Channel 2, Timestamp, Other, Timestamp (Formatted)
0.0, 0.0, 0.0, 0.0, 0.0, 0.0, 0.0, 0.0, 0.0, 1.004, -0.004, 0.202, 192.0, 31.0, 96.0, 255.0, 224.0, 6.0, 80.0, 0.0, 0.0, 0.0, 1.67908747675008E9, 0.0, 2023-03-17 14:11:16.750
1.0, -3701.9629719213217, -10449.149960178132, 7420.779159161945, -7301.689064704069, -5745.493560492225, -8678.578874895438, -2738.356916708579, -2976.7829748133395, 1.004, -0.004, 0.202, 192.0, 0.0, 0.0, 0.0, 0.0, 0.0, 0.0, 0.0, 0.0, 0.0, 1.679087476766079E9, 0.0, 2023-03-17 14:11:16.766
2.0, -3668.211837793808, -10414.616514994683, 7444.449656540115, -7282.220695283497, -5716.726865378245, -8655.020136239546, -2712.2053756958694, -2961.2485124169007, 1.004, -0.004, 0.202, 192.0, 0.0, 0.0, 0.0, 0.0, 0.0, 0.0, 0.0, 0.0, 0.0, 1.679087476772234E9, 0.0, 2023-03-17 14:11:16.772
3.0, -3660.4110789789056, -10402.881849155647, 7464.521523060981, -7259.265453727896, -5691.022359254642, -8628.980353949113, -2693.966352220339, -2943.0765441747362, 1.004, -0.004, 0.202, 192.0, 0.0, 0.0, 0.0, 0.0, 0.0, 0.0, 0.0, 0.0, 0.0, 1.679087476779034E9, 0.0, 2023-03-17 14:11:16.779
4.0, -3719.5537948076485, -10466.919597020102, 7415.750016659501, -7304.0136461274205, -5745.09122909203, -8679.942331307213, -2749.2645680027686, -3000.3193617247775, 1.004, -0.004, 0.202, 192.0, 0.0, 0.0, 0.0, 0.0, 0.0, 0.0, 0.0, 0.0, 0.0, 1.679087476779052E9, 0.0, 2023-03-17 14:11:16.779
5.0, -3724.1806059098967, -10475.614425613216, 7402.361321730772, -7316.530623022392, -5757.2505780757165, -8704.1045670634, -2770.2975595352127, -2992.7421203544286, 1.004, -0.004, 0.202, 192.0, 0.0, 0.0, 0.0, 0.0, 0.0, 0.0, 0.0, 0.0, 0.0, 1.679087476787103E9, 0.0, 2023-03-17 14:11:16.787
6.0, -3661.6851284128584, -10410.436738781542, 7451.959842677098, -7271.782430622868, -5702.801728582589, -8658.886988030314, -2741.4191056989557, -2938.7179540059515, 1.004, -0.004, 0.202, 192.0, 0.0, 0.0, 0.0, 0.0, 0.0, 0.0, 0.0, 0.0, 0.0, 1.679087476787124E9, 0.0, 2023-03-17 14:11:16.787
7.0, -3637.2546717232076, -10381.312415756276, 7478.737232534556, -7241.696982586024, -5670.145829933385, -8626.923993459224, -2694.0781109426157, -2901.2340785544015, 1.004, -0.004, 0.202, 192.0, 0.0, 0.0, 0.0, 0.0, 0.0, 0.0, 0.0, 0.0, 0.0, 1.679087476794154E9, 0.0, 2023-03-17 14:11:16.794
8.0, -3685.601494980037, -10430.933288447057, 7440.359287304794, -7268.764945121401, -5706.243897228706, -8673.080345759434, -2718.9332507769172, -2940.0143551843594, 1.01, -0.002, 0.20800000000000002, 192.0, 31.0, 144.0, 255.0, 240.0, 6.0, 128.0, 0.0, 0.0, 0.0, 1.679087476794172E9, 0.0, 2023-03-17 14:11:16.794
9.0, -3714.658762771936, -10465.243216185954, 7401.735472886023, -7301.890230404167, -5742.788999413133, -8710.564221210983, -2763.6590914319863, -2982.9744080274595, 1.01, -0.002, 0.20800000000000002, 192.0, 0.0, 0.0, 0.0, 0.0, 0.0, 0.0, 0.0, 0.0, 0.0, 1.679087476801682E9, 0.0, 2023-03-17 14:11:16.801
10.0, -3680.9746838777883, -10427.222898867476, 7421.51676672897, -7285.77462265189, -5716.346885722504, -8668.967624779658, -2730.7573235937743, -2957.113439692669, 1.01, -0.002, 0.20800000000000002, 192.0, 0.0, 0.0, 0.0, 0.0, 0.0, 0.0, 0.0, 0.0, 0.0, 1.679087476801692E9, 0.0, 2023-03-17 14:11:16.801
11.0, -3646.664756138892, -10386.878000125647, 7457.525427046469, -7250.458866412505, -5675.4208416248375, -8622.163071890243, -2685.740910260786, -2919.67426773003, 1.01, -0.002, 0.20800000000000002, 192.0, 0.0, 0.0, 0.0, 0.0, 0.0, 0.0, 0.0, 0.0, 0.0, 1.679087476809691E9, 0.0, 2023-03-17 14:11:16.809
12.0, -3695.1009863735426, -10429.234555868454, 7435.285441313439, -7276.319834747295, -5708.791996096611, -8644.76068553456, -2719.3355821771124, -2949.2009221554904, 1.01, -0.002, 0.20800000000000002, 192.0, 0.0, 0.0, 0.0, 0.0, 0.0, 0.0, 0.0, 0.0, 0.0, 1.679087476809702E9, 0.0, 2023-03-17 14:11:16.809
13.0, -3722.2807076311956, -10461.488123117462, 7405.356455487783, -7303.2536868159405, -5743.884234891443, -8692.48165994664, -2747.118800535059, -2982.661483605085, 1.01, -0.002, 0.20800000000000002, 192.0, 0.0, 0.0, 0.0, 0.0, 0.0, 0.0, 0.0, 0.0, 0.0, 1.679087476816879E9, 0.0, 2023-03-17 14:11:16.816
14.0, -3680.795869922146, -10422.216108109487, 7430.5692232333695, -7276.476296958483, -5715.139891521918, -8679.249427229099, -2715.4016751529784, -2956.755811781384, 1.01, -0.002, 0.20800000000000002, 192.0, 0.0, 0.0, 0.0, 0.0, 0.0, 0.0, 0.0, 0.0, 0.0, 1.679087476816891E9, 0.0, 2023-03-17 14:11:16.816
15.0, -3637.567596145582, -10378.429040721541, 7467.337842862349, -7240.981726763454, -5670.212885166751, -8641.743200033094, -2675.0120729222385, -2926.513901533354, 1.01, -0.002, 0.20800000000000002, 192.0, 0.0, 0.0, 0.0, 0.0, 0.0, 0.0, 0.0, 0.0, 0.0, 1.679087476824219E9, 0.0, 2023-03-17 14:11:16.824
16.0, -3665.2167040367967, -10401.987779377436, 7460.185284636651, -7246.949642533022, -5679.622969582435, -8633.160130162256, -2700.001323223272, -2938.539140050309, 1.01, -0.002, 0.20800000000000002, 192.0, 0.0, 0.0, 0.0, 0.0, 0.0, 0.0, 0.0, 0.0, 0.0, 1.679087476824279E9, 0.0, 2023-03-17 14:11:16.824
17.0, -3712.557698793137, -10453.709716047015, 7412.643124180213, -7294.894134389656, -5732.909528363887, -8687.519572677562, -2761.066289075171, -2985.8354313177388, 1.01, -0.002, 0.20800000000000002, 192.0, 0.0, 0.0, 0.0, 0.0, 0.0, 0.0, 0.0, 0.0, 0.0, 1.679087476831335E9, 0.0, 2023-03-17 14:11:16.831
18.0, -3694.855117184534, -10436.185948394055, 7417.404045749194, -7289.261494786918, -5723.6112026704795, -8688.413642455775, -2759.0769838186484, -2982.594428371719, 1.012, 0.0, 0.20600000000000002, 192.0, 31.0, 160.0, 0.0, 0.0, 6.0, 112.0, 0.0, 0.0, 0.0, 1.67908747683932E9, 0.0, 2023-03-17 14:11:16.839
19.0, -3646.821218350079, -10389.604912949195, 7452.04924965492, -7255.95739554851, -5683.467469628748, -8643.173711678233, -2683.4163288374343, -2937.980346438926, 1.012, 0.0, 0.20600000000000002, 192.0, 0.0, 0.0, 0.0, 0.0, 0.0, 0.0, 0.0, 0.0, 0.0, 1.67908747683934E9, 0.0, 2023-03-17 14:11:16.839
20.0, -3660.634596423459, -10400.356102032198, 7458.66536601369, -7251.688212357547, -5680.561742849558, -8630.209699894154, -2684.645674782476, -2922.24471834239, 1.012, 0.0, 0.20600000000000002, 192.0, 0.0, 0.0, 0.0, 0.0, 0.0, 0.0, 0.0, 0.0, 0.0, 1.679087476846502E9, 0.0, 2023-03-17 14:11:16.846
21.0, -3729.1650449234303, -10473.64747210115, 7400.014388562965, -7320.464530046526, -5755.082458863551, -8695.029758814546, -2770.029338601749, -2980.560419626286, 1.012, 0.0, 0.20600000000000002, 192.0, 0.0, 0.0, 0.0, 0.0, 0.0, 0.0, 0.0, 0.0, 0.0, 1.679087476846515E9, 0.0, 2023-03-17 14:11:16.846
22.0, -3723.1300739204976, -10471.769925566903, 7392.03481579242, -7322.16326262513, -5757.608205987001, -8706.92088686477, -2769.8505246461064, -2987.1318324961467, 1.012, 0.0, 0.20600000000000002, 192.0, 0.0, 0.0, 0.0, 0.0, 0.0, 0.0, 0.0, 0.0, 0.0, 1.679087476853962E9, 0.0, 2023-03-17 14:11:16.853
23.0, -3653.5490934311265, -10401.876020655158, 7449.143522875729, -7265.121610775186, -5691.961132521765, -8637.272851142032, -2700.96244823485, -2928.2349858564125, 1.012, 0.0, 0.20600000000000002, 192.0, 0.0, 0.0, 0.0, 0.0, 0.0, 0.0, 0.0, 0.0, 0.0, 1.679087476853974E9, 0.0, 2023-03-17 14:11:16.853
24.0, -3662.847419124534, -10403.552401489307, 7462.107534659807, -7256.829113582267, -5681.545219605591, -8624.331191102408, -2683.326921859613, -2918.601383996175, 1.012, 0.0, 0.20600000000000002, 192.0, 0.0, 0.0, 0.0, 0.0, 0.0, 0.0, 0.0, 0.0, 0.0, 1.679087476861898E9, 0.0, 2023-03-17 14:11:16.861
25.0, -3712.982381937788, -10452.92740499108, 7427.350572031805, -7292.167221566108, -5725.153473037895, -8680.43406968523, -2744.9953848118053, -2956.465239103465, 1.012, 0.0, 0.20600000000000002, 192.0, 0.0, 0.0, 0.0, 0.0, 0.0, 0.0, 0.0, 0.0, 0.0, 1.679087476861907E9, 0.0, 2023-03-17 14:11:16.861
26.0, -3715.888108716978, -10458.671803316094, 7414.699484670101, -7303.410149027128, -5738.117484821973, -8698.606037927395, -2757.6911756624195, -2969.786878798828, 1.012, 0.0, 0.20600000000000002, 192.0, 0.0, 0.0, 0.0, 0.0, 0.0, 0.0, 0.0, 0.0, 0.0, 1.679087476869984E9, 0.0, 2023-03-17 14:11:16.869
27.0, -3666.1554773039197, -10405.899334657113, 7451.490456043537, -7271.693023645047, -5698.219620969251, -8655.578929850928, -2711.1771954509254, -2935.275785359834, 1.012, 0.0, 0.20600000000000002, 192.0, 0.0, 0.0, 0.0, 0.0, 0.0, 0.0, 0.0, 0.0, 0.0, 1.679087476869997E9, 0.0, 2023-03-17 14:11:16.869
28.0, -3662.892122613445, -10396.288084541331, 7463.873322471777, -7258.036107782854, -5683.892152773399, -8635.127083674322, -2692.133509175004, -2930.3360498352113, 1.012, -0.008, 0.212, 192.0, 31.0, 160.0, 255.0, 192.0, 6.0, 160.0, 0.0, 0.0, 0.0, 1.679087476876517E9, 0.0, 2023-03-17 14:11:16.876
29.0, -3712.8035679821455, -10448.457056100018, 7425.338915030828, -7288.881515131178, -5723.745313137211, -8681.015215041067, -2767.7271089228525, -2971.9549980109928, 1.012, -0.008, 0.212, 192.0, 0.0, 0.0, 0.0, 0.0, 0.0, 0.0, 0.0, 0.0, 0.0, 1.679087476876541E9, 0.0, 2023-03-17 14:11:16.876
30.0, -3733.12130369202, -10475.972053524501, 7392.951237315087, -7314.2283933434965, -5750.90268265041, -8713.537003223539, -2791.93404816795, -2994.597315144219, 1.012, -0.008, 0.212, 192.0, 0.0, 0.0, 0.0, 0.0, 0.0, 0.0, 0.0, 0.0, 0.0, 1.679087476884609E9, 0.0, 2023-03-17 14:11:16.884
31.0, -3678.3595297765173, -10424.831262210759, 7426.210633064585, -7273.503514945926, -5702.17587973784, -8682.423374941753, -2715.5581373641658, -2960.533256594331, 1.012, -0.008, 0.212, 192.0, 0.0, 0.0, 0.0, 0.0, 0.0, 0.0, 0.0, 0.0, 0.0, 1.679087476884628E9, 0.0, 2023-03-17 14:11:16.884
32.0, -3652.073878297076, -10396.645712452617, 7457.123095646274, -7242.300479686318, -5669.7882020221, -8636.110560430356, -2686.1432416609814, -2957.471067603954, 1.012, -0.008, 0.212, 192.0, 0.0, 0.0, 0.0, 0.0, 0.0, 0.0, 0.0, 0.0, 0.0, 1.679087476891599E9, 0.0, 2023-03-17 14:11:16.891
33.0, -3702.7229312328022, -10446.043067698845, 7424.355438274794, -7277.884456859167, -5713.46351068777, -8666.95596777868, -2727.315154947657, -2974.8607247901828, 1.012, -0.008, 0.212, 192.0, 0.0, 0.0, 0.0, 0.0, 0.0, 0.0, 0.0, 0.0, 0.0, 1.679087476899668E9, 0.0, 2023-03-17 14:11:16.899
34.0, -3725.1864344103856, -10474.809762812825, 7393.040644292909, -7308.215774085018, -5746.834665159544, -8708.239639787631, -2767.54829496721, -2979.8004603148056, 1.012, -0.008, 0.212, 192.0, 0.0, 0.0, 0.0, 0.0, 0.0, 0.0, 0.0, 0.0, 0.0, 1.679087476899679E9, 0.0, 2023-03-17 14:11:16.899
35.0, -3671.184619806364, -10424.138358132644, 7430.479816255548, -7268.832000354768, -5701.728844848734, -8674.868485315857, -2723.2471374567913, -2934.3593638371667, 1.012, -0.008, 0.212, 192.0, 0.0, 0.0, 0.0, 0.0, 0.0, 0.0, 0.0, 0.0, 0.0, 1.679087476906279E9, 0.0, 2023-03-17 14:11:16.906
36.0, -3635.2206629777747, -10386.09568906971, 7466.577883550869, -7234.522072615871, -5664.222617652728, -8633.89773772928, -2673.223933365814, -2906.4867385013986, 1.012, -0.008, 0.212, 192.0, 0.0, 0.0, 0.0, 0.0, 0.0, 0.0, 0.0, 0.0, 0.0, 1.679087476906292E9, 0.0, 2023-03-17 14:11:16.906
37.0, -3683.947465890344, -10429.59218377974, 7439.174644848663, -7262.5735119072815, -5700.7453680927, -8670.845171313902, -2718.9556025213724, -2946.0046226983814, 1.012, -0.008, 0.212, 192.0, 0.0, 0.0, 0.0, 0.0, 0.0, 0.0, 0.0, 0.0, 0.0, 1.679087476914179E9, 0.0, 2023-03-17 14:11:16.914
38.0, -3727.0863326890867, -10477.536675636373, 7394.873487338244, -7309.221602585507, -5752.132028595452, -8724.623468473372, -2774.9914258708272, -2996.11723376718, 1.014, -0.01, 0.21, 192.0, 31.0, 176.0, 255.0, 176.0, 6.0, 144.0, 0.0, 0.0, 0.0, 1.679087476914191E9, 0.0, 2023-03-17 14:11:16.914
39.0, -3699.146652119953, -10449.038201455856, 7407.211650277573, -7293.150698322142, -5731.411961485382, -8719.035532359545, -2753.5561029381875, -2980.0686812482695, 1.014, -0.01, 0.21, 192.0, 0.0, 0.0, 0.0, 0.0, 0.0, 0.0, 0.0, 0.0, 0.0, 1.679087476922286E9, 0.0, 2023-03-17 14:11:16.922
40.0, -3661.4839627127603, -10407.307494557797, 7439.286403570939, -7261.657090384614, -5692.341112177505, -8646.772342535538, -2709.3667041500457, -2943.0988959191914, 1.014, -0.01, 0.21, 192.0, 0.0, 0.0, 0.0, 0.0, 0.0, 0.0, 0.0, 0.0, 0.0, 1.679087476922299E9, 0.0, 2023-03-17 14:11:16.922
41.0, -3670.670529683892, -10408.223916080466, 7454.172665378173, -7245.697944843525, -5682.931027761821, -8627.192214392688, -2730.82437882714, -2938.62854702813, 1.014, -0.01, 0.21, 192.0, 0.0, 0.0, 0.0, 0.0, 0.0, 0.0, 0.0, 0.0, 0.0, 1.679087476929257E9, 0.0, 2023-03-17 14:11:16.929
42.0, -3723.9347367208884, -10464.907940019124, 7404.484737454026, -7300.660884459125, -5747.259348304195, -8696.48262220414, -2777.3383590386343, -2996.631323889652, 1.014, -0.01, 0.21, 192.0, 0.0, 0.0, 0.0, 0.0, 0.0, 0.0, 0.0, 0.0, 0.0, 1.679087476929288E9, 0.0, 2023-03-17 14:11:16.929
43.0, -3692.9775706502883, -10436.1635966496, 7423.908403385688, -7281.617198183203, -5723.857071859488, -8686.938427321724, -2747.610538913076, -2958.9239309935488, 1.014, -0.01, 0.21, 192.0, 0.0, 0.0, 0.0, 0.0, 0.0, 0.0, 0.0, 0.0, 0.0, 1.679087476936889E9, 0.0, 2023-03-17 14:11:16.936
44.0, -3654.040831809143, -10398.2550380534, 7452.451581055115, -7257.969052549488, -5692.7434435777, -8661.680956087226, -2700.448358112378, -2940.9978319403926, 1.014, -0.01, 0.21, 192.0, 0.0, 0.0, 0.0, 0.0, 0.0, 0.0, 0.0, 0.0, 0.0, 1.679087476936909E9, 0.0, 2023-03-17 14:11:16.936
45.0, -3667.8765616269784, -10408.402730036109, 7456.184322379151, -7248.536616389349, -5692.341112177505, -8650.102752459377, -2694.8157185096406, -2964.4671636184653, 1.014, -0.01, 0.21, 192.0, 0.0, 0.0, 0.0, 0.0, 0.0, 0.0, 0.0, 0.0, 0.0, 1.679087476944776E9, 0.0, 2023-03-17 14:11:16.944
46.0, -3708.02029466871, -10452.793294524348, 7420.7121039285785, -7280.566666193804, -5733.13304580844, -8677.260121972577, -2736.7922945967075, -2982.7732423273615, 1.014, -0.01, 0.21, 192.0, 0.0, 0.0, 0.0, 0.0, 0.0, 0.0, 0.0, 0.0, 0.0, 1.679087476944786E9, 0.0, 2023-03-17 14:11:16.944
47.0, -3705.7404167342684, -10454.290861402853, 7405.7364351435235, -7290.848468643245, -5740.777342412155, -8693.085157046933, -2751.745611637308, -2985.8801348066495, 1.014, -0.01, 0.21, 192.0, 0.0, 0.0, 0.0, 0.0, 0.0, 0.0, 0.0, 0.0, 0.0, 1.679087476951991E9, 0.0, 2023-03-17 14:11:16.951
48.0, -3647.4247154503723, -10395.237552551933, 7450.61873800978, -7253.38694493615, -5692.31876043305, -8647.487598358108, -2705.097520959082, -2924.1222648766357, 1.012, -0.004, 0.21, 192.0, 31.0, 160.0, 255.0, 224.0, 6.0, 144.0, 0.0, 0.0, 0.0, 1.679087476958411E9, 0.0, 2023-03-17 14:11:16.958
49.0, -3657.728869644269, -10401.563096232783, 7454.038554911442, -7245.899110543623, -5686.261437685662, -8653.969604250145, -2704.672837814431, -2930.403105068577, 1.012, -0.004, 0.21, 192.0, 0.0, 0.0, 0.0, 0.0, 0.0, 0.0, 0.0, 0.0, 0.0, 1.679087476958427E9, 0.0, 2023-03-17 14:11:16.958
50.0, -3705.9639341788215, -10451.653355557128, 7416.666438182168, -7278.331491748273, -5725.824025371555, -8675.315520204964, -2739.630966142531, -2971.9549980109928, 1.012, -0.004, 0.21, 192.0, 0.0, 0.0, 0.0, 0.0, 0.0, 0.0, 0.0, 0.0, 0.0, 1.679087476966511E9, 0.0, 2023-03-17 14:11:16.966
51.0, -3713.8317482270895, -10462.0692684733, 7400.640237407713, -7298.6715792026025, -5742.99016511323, -8692.056976801989, -2769.1129170790814, -2982.1250417381575, 1.012, -0.004, 0.21, 192.0, 0.0, 0.0, 0.0, 0.0, 0.0, 0.0, 0.0, 0.0, 0.0, 1.67908747696652E9, 0.0, 2023-03-17 14:11:16.966
52.0, -3656.0971922990316, -10403.083014855745, 7447.131865874751, -7262.327642718273, -5696.766757579656, -8657.90351127428, -2730.287936960213, -2936.6839452605186, 1.012, -0.004, 0.21, 192.0, 0.0, 0.0, 0.0, 0.0, 0.0, 0.0, 0.0, 0.0, 0.0, 1.679087476974479E9, 0.0, 2023-03-17 14:11:16.974
53.0, -3652.8338376085567, -10393.874096140158, 7458.62066252478, -7248.201340222519, -5682.975731250731, -8645.52064484604, -2735.317079462657, -2925.820997455239, 1.012, -0.004, 0.21, 192.0, 0.0, 0.0, 0.0, 0.0, 0.0, 0.0, 0.0, 0.0, 0.0, 1.679087476974501E9, 0.0, 2023-03-17 14:11:16.974
54.0, -3707.2826871016846, -10444.59020430925, 7422.075560340352, -7284.902904618133, -5729.735580651233, -8683.965645309168, -2728.4997974037883, -2969.563361354275, 1.012, -0.004, 0.21, 192.0, 0.0, 0.0, 0.0, 0.0, 0.0, 0.0, 0.0, 0.0, 0.0, 1.67908747698166E9, 0.0, 2023-03-17 14:11:16.981
55.0, -3744.6771555754135, -10482.11878324971, 7383.809373832867, -7330.187538884586, -5777.300092852127, -8731.530157510062, -2775.8184404156736, -3016.50202471042, 1.012, -0.004, 0.21, 192.0, 0.0, 0.0, 0.0, 0.0, 0.0, 0.0, 0.0, 0.0, 0.0, 1.679087476981677E9, 0.0, 2023-03-17 14:11:16.981
56.0, -3700.979495165288, -10436.029486182868, 7414.5430224589145, -7301.733768192979, -5743.504255235703, -8702.562296695984, -2745.442419700911, -2987.310646451789, 1.012, -0.004, 0.21, 192.0, 0.0, 0.0, 0.0, 0.0, 0.0, 0.0, 0.0, 0.0, 0.0, 1.679087476989204E9, 0.0, 2023-03-17 14:11:16.989
57.0, -3666.4460499818388, -10399.39497702062, 7451.736325232545, -7263.57934040777, -5700.566554137058, -8662.664432843261, -2693.5416690756883, -2946.719878520951, 1.012, -0.004, 0.21, 192.0, 0.0, 0.0, 0.0, 0.0, 0.0, 0.0, 0.0, 0.0, 0.0, 1.679087476989219E9, 0.0, 2023-03-17 14:11:16.989
58.0, -3701.7618062212237, -10436.275355371876, 7432.692638956623, -7280.589017938259, -5728.416827728371, -8663.737316577115, -2716.5639658646546, -2976.2241812019565, 1.006, -0.002, 0.214, 192.0, 31.0, 112.0, 255.0, 240.0, 6.0, 176.0, 0.0, 0.0, 0.0, 1.679087476997063E9, 0.0, 2023-03-17 14:11:16.997
59.0, -3725.856986744045, -10468.484219131973, 7402.495432197504, -7311.5908874977695, -5766.034813646653, -8693.86746810287, -2760.5521989526987, -2985.9471900400154, 1.006, -0.002, 0.214, 192.0, 0.0, 0.0, 0.0, 0.0, 0.0, 0.0, 0.0, 0.0, 0.0, 1.679087476997075E9, 0.0, 2023-03-17 14:11:16.997
60.0, -3682.8298786675787, -10428.608707023706, 7428.401104021204, -7285.372291251695, -5734.250633031205, -8671.962758536669, -2731.785503838719, -2957.3369571372223, 1.006, -0.002, 0.214, 192.0, 0.0, 0.0, 0.0, 0.0, 0.0, 0.0, 0.0, 0.0, 0.0, 1.67908747700513E9, 0.0, 2023-03-17 14:11:17.005
61.0, -3655.0019568207217, -10401.2054683215, 7452.920967688677, -7261.835904340256, -5703.584039638525, -8651.28739491551, -2718.6873815879085, -2941.0648871737585, 1.006, -0.002, 0.214, 192.0, 0.0, 0.0, 0.0, 0.0, 0.0, 0.0, 0.0, 0.0, 0.0, 1.679087477005143E9, 0.0, 2023-03-17 14:11:17.005
62.0, -3678.046605354143, -10421.880831942659, 7448.070639141874, -7260.606558395214, -5708.657885629879, -8653.343755405398, -2723.671820601442, -2950.4302681005324, 1.006, -0.002, 0.214, 192.0, 0.0, 0.0, 0.0, 0.0, 0.0, 0.0, 0.0, 0.0, 0.0, 1.679087477011209E9, 0.0, 2023-03-17 14:11:17.011
63.0, -3716.335143606084, -10465.600844097238, 7405.423510721149, -7297.755157679935, -5752.80258092911, -8695.00740707009, -2779.2382573173354, -2989.2328964749454, 1.006, -0.002, 0.214, 192.0, 0.0, 0.0, 0.0, 0.0, 0.0, 0.0, 0.0, 0.0, 0.0, 1.679087477011263E9, 0.0, 2023-03-17 14:11:17.011
64.0, -3693.983399150777, -10441.550367063328, 7416.7781969044445, -7286.512230218916, -5736.865787132477, -8688.1007180334, -2755.4336494724334, -2963.3942798846106, 1.006, -0.002, 0.214, 192.0, 0.0, 0.0, 0.0, 0.0, 0.0, 0.0, 0.0, 0.0, 0.0, 1.679087477018839E9, 0.0, 2023-03-17 14:11:17.018
65.0, -3661.7074801573135, -10403.373587533664, 7447.400086808216, -7263.9146165746, -5704.925144305843, -8657.635290340817, -2707.4891576157997, -2942.763619752362, 1.006, -0.002, 0.214, 192.0, 0.0, 0.0, 0.0, 0.0, 0.0, 0.0, 0.0, 0.0, 0.0, 1.679087477026721E9, 0.0, 2023-03-17 14:11:17.026
66.0, -3687.6802072143805, -10420.763244719892, 7443.287365828439, -7267.937930576555, -5711.138929264418, -8664.519627633052, -2726.4434369139003, -2940.0590586732696, 1.006, -0.002, 0.214, 192.0, 0.0, 0.0, 0.0, 0.0, 0.0, 0.0, 0.0, 0.0, 0.0, 1.679087477026741E9, 0.0, 2023-03-17 14:11:17.026
67.0, -3723.1300739204976, -10463.566835351807, 7405.4458624656045, -7301.554954237337, -5751.4391245173365, -8711.793567156026, -2787.061367876693, -2980.0686812482695, 1.006, -0.002, 0.214, 192.0, 0.0, 0.0, 0.0, 0.0, 0.0, 0.0, 0.0, 0.0, 0.0, 1.679087477034846E9, 0.0, 2023-03-17 14:11:17.034
68.0, -3692.8658119280117, -10440.075151929279, 7413.760711402979, -7283.181820295074, -5733.46832197527, -8684.122107520356, -2734.0206782842492, -2974.704262578996, 1.008, -0.006, 0.21, 192.0, 31.0, 128.0, 255.0, 208.0, 6.0, 144.0, 0.0, 0.0, 0.0, 1.679087477034863E9, 0.0, 2023-03-17 14:11:17.034
69.0, -3652.2079887638083, -10400.758433432393, 7438.258223325995, -7261.00888979541, -5700.7453680927, -8644.112484945355, -2688.803099251163, -2957.2922536483115, 1.008, -0.006, 0.21, 192.0, 0.0, 0.0, 0.0, 0.0, 0.0, 0.0, 0.0, 0.0, 0.0, 1.679087477041345E9, 0.0, 2023-03-17 14:11:17.041
70.0, -3674.7832506636682, -10414.616514994683, 7444.583767006847, -7269.971939321988, -5708.8814030744325, -8640.916185488246, -2699.934267989906, -2962.5449135953086, 1.008, -0.006, 0.21, 192.0, 0.0, 0.0, 0.0, 0.0, 0.0, 0.0, 0.0, 0.0, 0.0, 1.679087477041357E9, 0.0, 2023-03-17 14:11:17.041
71.0, -3716.8045302396454, -10459.431762627573, 7412.240792780018, -7303.991294382965, -5750.6121099724905, -8694.33685473643, -2762.094469320115, -2991.5574778982973, 1.008, -0.006, 0.21, 192.0, 0.0, 0.0, 0.0, 0.0, 0.0, 0.0, 0.0, 0.0, 0.0, 1.67908747704939E9, 0.0, 2023-03-17 14:11:17.049
72.0, -3713.0270854266987, -10461.398716139642, 7398.963856573565, -7312.574364253804, -5758.636386231946, -8730.72549470967, -2785.519097509277, -3015.116216554191, 1.008, -0.006, 0.21, 192.0, 0.0, 0.0, 0.0, 0.0, 0.0, 0.0, 0.0, 0.0, 0.0, 1.679087477049404E9, 0.0, 2023-03-17 14:11:17.049
73.0, -3649.9728143182774, -10401.63015146615, 7445.634298996246, -7265.523942175382, -5705.193365239306, -8667.693575345704, -2730.9137858049617, -2967.864628775672, 1.008, -0.006, 0.21, 192.0, 0.0, 0.0, 0.0, 0.0, 0.0, 0.0, 0.0, 0.0, 0.0, 1.679087477057308E9, 0.0, 2023-03-17 14:11:17.057
74.0, -3650.017517807188, -10395.416366507574, 7460.408802081204, -7248.335450689251, -5688.1613359643625, -8627.616897537338, -2701.878869757518, -2925.7762939663285, 1.008, -0.006, 0.21, 192.0, 0.0, 0.0, 0.0, 0.0, 0.0, 0.0, 0.0, 0.0, 0.0, 1.679087477057317E9, 0.0, 2023-03-17 14:11:17.057
75.0, -3714.1893761383744, -10459.655280072127, 7410.698522412601, -7298.895096647156, -5746.208816314795, -8693.465136702674, -2780.2440858178243, -2973.184343956035, 1.008, -0.006, 0.21, 192.0, 0.0, 0.0, 0.0, 0.0, 0.0, 0.0, 0.0, 0.0, 0.0, 1.679087477063935E9, 0.0, 2023-03-17 14:11:17.063
76.0, -3725.7675797662237, -10475.010928512924, 7394.694673382602, -7320.620992257714, -5768.739374725745, -8714.699293935215, -2807.7143797533968, -2994.1055767662024, 1.008, -0.006, 0.21, 192.0, 0.0, 0.0, 0.0, 0.0, 0.0, 0.0, 0.0, 0.0, 0.0, 1.679087477063946E9, 0.0, 2023-03-17 14:11:17.063
77.0, -3675.7220239307912, -10424.339523832741, 7432.759694189989, -7286.087547074265, -5721.353676480494, -8674.264988215566, -2725.325849691135, -2954.0959541912025, 1.008, -0.006, 0.21, 192.0, 0.0, 0.0, 0.0, 0.0, 0.0, 0.0, 0.0, 0.0, 0.0, 1.679087477072015E9, 0.0, 2023-03-17 14:11:17.072
78.0, -3656.8347998660565, -10400.221991565466, 7458.151275891219, -7254.951567048021, -5685.881458029921, -8646.146493690789, -2694.9498289763724, -2925.15044512158, 1.006, 0.0, 0.20800000000000002, 192.0, 31.0, 112.0, 0.0, 0.0, 6.0, 128.0, 0.0, 0.0, 0.0, 1.679087477072033E9, 0.0, 2023-03-17 14:11:17.072
79.0, -3707.819128968612, -10452.279204401875, 7418.119301571764, -7291.697834932546, -5729.623821928957, -8690.380595967841, -2748.795181369207, -2969.697471821007, 1.006, 0.0, 0.20800000000000002, 192.0, 0.0, 0.0, 0.0, 0.0, 0.0, 0.0, 0.0, 0.0, 0.0, 1.679087477078996E9, 0.0, 2023-03-17 14:11:17.078
80.0, -3727.68982978938, -10478.721318092505, 7390.492545425003, -7317.11176837823, -5758.457572276303, -8725.316372551486, -2795.644437747531, -3000.073492535769, 1.006, 0.0, 0.20800000000000002, 192.0, 0.0, 0.0, 0.0, 0.0, 0.0, 0.0, 0.0, 0.0, 0.0, 1.679087477087068E9, 0.0, 2023-03-17 14:11:17.087
81.0, -3678.985378621266, -10433.660201270604, 7423.37196151876, -7281.907770861122, -5714.826967099544, -8685.463212187673, -2768.3976612565116, -2963.4836868624316, 1.006, 0.0, 0.20800000000000002, 192.0, 0.0, 0.0, 0.0, 0.0, 0.0, 0.0, 0.0, 0.0, 0.0, 1.67908747708708E9, 0.0, 2023-03-17 14:11:17.087
82.0, -3644.7425061157355, -10403.462994511485, 7454.083258400352, -7231.415180136583, -5666.547199076081, -8651.108580959866, -2693.5193173312327, -2931.051305657781, 1.006, 0.0, 0.20800000000000002, 192.0, 0.0, 0.0, 0.0, 0.0, 0.0, 0.0, 0.0, 0.0, 0.0, 1.679087477093544E9, 0.0, 2023-03-17 14:11:17.093
83.0, -3689.6471607264475, -10445.506625831918, 7429.8539674108, -7252.805799580312, -5696.096205245996, -8663.200874710188, -2724.0518002571825, -2951.72666927894, 1.006, 0.0, 0.20800000000000002, 192.0, 0.0, 0.0, 0.0, 0.0, 0.0, 0.0, 0.0, 0.0, 0.0, 1.679087477093557E9, 0.0, 2023-03-17 14:11:17.093
84.0, -3721.699562275358, -10474.161562223622, 7400.908458341177, -7305.533564750382, -5740.956156367798, -8703.299904263009, -2773.449155503411, -2981.253323704401, 1.006, 0.0, 0.20800000000000002, 192.0, 0.0, 0.0, 0.0, 0.0, 0.0, 0.0, 0.0, 0.0, 0.0, 1.67908747710161E9, 0.0, 2023-03-17 14:11:17.101
85.0, -3686.942599647355, -10436.49887281643, 7423.997810363509, -7288.255666286429, -5715.385760710927, -8680.702290618694, -2754.7854488832295, -2966.568227597264, 1.006, 0.0, 0.20800000000000002, 192.0, 0.0, 0.0, 0.0, 0.0, 0.0, 0.0, 0.0, 0.0, 0.0, 1.679087477101623E9, 0.0, 2023-03-17 14:11:17.101
86.0, -3661.461610968305, -10408.268619569377, 7445.7684094629785, -7264.719279374991, -5685.1662022073515, -8652.002650738079, -2726.286974702713, -2942.4283435855323, 1.006, 0.0, 0.20800000000000002, 192.0, 0.0, 0.0, 0.0, 0.0, 0.0, 0.0, 0.0, 0.0, 0.0, 1.679087477109578E9, 0.0, 2023-03-17 14:11:17.109
87.0, -3688.864849670512, -10432.140282647644, 7435.844234924822, -7261.567683406793, -5690.687083087812, -8661.56919736495, -2744.190722011414, -2947.3457273657, 1.006, 0.0, 0.20800000000000002, 192.0, 0.0, 0.0, 0.0, 0.0, 0.0, 0.0, 0.0, 0.0, 0.0, 1.679087477109588E9, 0.0, 2023-03-17 14:11:17.109
88.0, -3714.9940389387657, -10467.254873186932, 7398.159193773174, -7278.040919070354, -5717.777397367644, -8710.474814233163, -2771.191629313425, -2993.21150698799, 1.004, -0.004, 0.21, 192.0, 31.0, 96.0, 255.0, 224.0, 6.0, 144.0, 0.0, 0.0, 0.0, 1.679087477116863E9, 0.0, 2023-03-17 14:11:17.116
89.0, -3692.73170146128, -10447.183006666066, 7407.949257844599, -7268.608482910215, -5702.958190793775, -8696.996712326612, -2769.0682135901707, -2985.3213411952665, 1.004, -0.004, 0.21, 192.0, 0.0, 0.0, 0.0, 0.0, 0.0, 0.0, 0.0, 0.0, 0.0, 1.679087477116886E9, 0.0, 2023-03-17 14:11:17.116
90.0, -3644.3848782044506, -10396.91393338608, 7451.37869732126, -7229.157653946598, -5655.617196037436, -8656.361240906865, -2724.5658903796543, -2927.0950468891915, 1.004, -0.004, 0.21, 192.0, 0.0, 0.0, 0.0, 0.0, 0.0, 0.0, 0.0, 0.0, 0.0, 1.67908747712424E9, 0.0, 2023-03-17 14:11:17.124
91.0, -3660.880465612467, -10407.82158468027, 7454.910272945199, -7223.413255621584, -5655.326623359517, -8644.403057623274, -2712.0936169735933, -2928.77142772334, 1.004, -0.004, 0.21, 192.0, 0.0, 0.0, 0.0, 0.0, 0.0, 0.0, 0.0, 0.0, 0.0, 1.679087477124258E9, 0.0, 2023-03-17 14:11:17.124
92.0, -3724.672344287914, -10476.866123302714, 7394.068824537853, -7292.122518077197, -5729.400304484404, -8711.190070055733, -2791.129385367559, -2990.596352886719, 1.004, -0.004, 0.21, 192.0, 0.0, 0.0, 0.0, 0.0, 0.0, 0.0, 0.0, 0.0, 0.0, 1.679087477132343E9, 0.0, 2023-03-17 14:11:17.132
93.0, -3722.9736117093103, -10477.737841336471, 7383.921132555143, -7305.846489172756, -5741.023211601164, -8724.15408183981, -2822.5559380717204, -2998.218297745979, 1.004, -0.004, 0.21, 192.0, 0.0, 0.0, 0.0, 0.0, 0.0, 0.0, 0.0, 0.0, 0.0, 1.679087477132361E9, 0.0, 2023-03-17 14:11:17.132
94.0, -3669.9105703724113, -10423.624268010171, 7428.445807510115, -7265.702756131024, -5688.764833064656, -8684.569142409462, -2753.8243238716514, -2962.991948484415, 1.004, -0.004, 0.21, 192.0, 0.0, 0.0, 0.0, 0.0, 0.0, 0.0, 0.0, 0.0, 0.0, 1.679087477139379E9, 0.0, 2023-03-17 14:11:17.139
95.0, -3658.220608022286, -10404.804099178804, 7459.738249747545, -7232.331601659251, -5654.253739625662, -8645.788865779503, -2709.1208349610374, -2933.375887081133, 1.004, -0.004, 0.21, 192.0, 0.0, 0.0, 0.0, 0.0, 0.0, 0.0, 0.0, 0.0, 0.0, 1.679087477146402E9, 0.0, 2023-03-17 14:11:17.146
96.0, -3701.9406201768666, -10450.200492167533, 7422.366133018271, -7268.273206743384, -5699.471318658748, -8689.62063665636, -2760.574550697154, -2963.930721751538, 1.004, -0.004, 0.21, 192.0, 0.0, 0.0, 0.0, 0.0, 0.0, 0.0, 0.0, 0.0, 0.0, 1.679087477146412E9, 0.0, 2023-03-17 14:11:17.146
97.0, -3712.0883121595757, -10463.678594074083, 7397.399234461694, -7287.048672085843, -5719.453778201792, -8708.731378165648, -2784.0662341196817, -2996.586620400741, 1.004, -0.004, 0.21, 192.0, 0.0, 0.0, 0.0, 0.0, 0.0, 0.0, 0.0, 0.0, 0.0, 1.67908747715397E9, 0.0, 2023-03-17 14:11:17.153
98.0, -3662.3556807465175, -10414.817680694781, 7427.551737731903, -7255.108029259209, -5679.399452137882, -8686.603151154894, -2760.6863094194305, -2956.174666425546, 1.008, -0.002, 0.20600000000000002, 192.0, 31.0, 128.0, 255.0, 240.0, 6.0, 112.0, 0.0, 0.0, 0.0, 1.67908747715398E9, 0.0, 2023-03-17 14:11:17.153
99.0, -3652.4762096972718, -10398.702072942504, 7452.228063610562, -7234.946755760522, -5656.734783260201, -8650.594490837395, -2735.451189929389, -2914.868642672139, 1.008, -0.002, 0.20600000000000002, 192.0, 0.0, 0.0, 0.0, 0.0, 0.0, 0.0, 0.0, 0.0, 0.0, 1.679087477161879E9, 0.0, 2023-03-17 14:11:17.161
100.0, -3704.242849855763, -10449.0158497114, 7415.258278281484, -7272.162410278608, -5704.656923372379, -8689.732395378638, -2772.0409956027265, -2979.331073681244, 1.008, -0.002, 0.20600000000000002, 192.0, 0.0, 0.0, 0.0, 0.0, 0.0, 0.0, 0.0, 0.0, 0.0, 1.679087477161891E9, 0.0, 2023-03-17 14:11:17.161
101.0, -3721.207823897341, -10469.35593716573, 7395.052301293887, -7298.6715792026025, -5732.7530661527, -8718.990828870634, -2789.2071353444026, -2995.916068067082, 1.008, -0.002, 0.20600000000000002, 192.0, 0.0, 0.0, 0.0, 0.0, 0.0, 0.0, 0.0, 0.0, 0.0, 1.67908747716998E9, 0.0, 2023-03-17 14:11:17.169
102.0, -3682.0922711005537, -10431.469730313986, 7422.299077784905, -7278.175029537086, -5701.527679148636, -8692.52636343555, -2756.2383122728247, -2957.0240327148476, 1.008, -0.002, 0.20600000000000002, 192.0, 0.0, 0.0, 0.0, 0.0, 0.0, 0.0, 0.0, 0.0, 0.0, 1.679087477170055E9, 0.0, 2023-03-17 14:11:17.170
103.0, -3653.5714451755816, -10402.948904389013, 7453.770333977978, -7238.254813939908, -5656.5783210490135, -8666.106601489379, -2750.4715622033555, -2927.0503434002812, 1.008, -0.002, 0.20600000000000002, 192.0, 0.0, 0.0, 0.0, 0.0, 0.0, 0.0, 0.0, 0.0, 0.0, 1.679087477176598E9, 0.0, 2023-03-17 14:11:17.176
104.0, -3697.4255677968945, -10447.16065492161, 7426.054170853397, -7261.925311318078, -5691.357635421471, -8694.135689036333, -2784.513269008788, -2960.2203321719567, 1.008, -0.002, 0.20600000000000002, 192.0, 0.0, 0.0, 0.0, 0.0, 0.0, 0.0, 0.0, 0.0, 0.0, 1.679087477176617E9, 0.0, 2023-03-17 14:11:17.176
105.0, -3723.5100535762376, -10478.631911114682, 7390.0678622803525, -7296.034073356876, -5731.501368463203, -8723.416474272784, -2785.832021931651, -2996.6983791230177, 1.008, -0.002, 0.20600000000000002, 192.0, 0.0, 0.0, 0.0, 0.0, 0.0, 0.0, 0.0, 0.0, 0.0, 1.679087477184726E9, 0.0, 2023-03-17 14:11:17.184
106.0, -3676.0125966087103, -10431.201509380522, 7420.019199850464, -7264.182837508063, -5692.408167410871, -8690.112375034378, -2750.404506969989, -2961.5837885837304, 1.008, -0.002, 0.20600000000000002, 192.0, 0.0, 0.0, 0.0, 0.0, 0.0, 0.0, 0.0, 0.0, 0.0, 1.679087477184742E9, 0.0, 2023-03-17 14:11:17.184
107.0, -3649.9057590849116, -10401.29487529932, 7446.684830985646, -7232.890395270633, -5657.3382803604945, -8663.580854365928, -2719.6261548550315, -2929.173759123535, 1.008, -0.002, 0.20600000000000002, 192.0, 0.0, 0.0, 0.0, 0.0, 0.0, 0.0, 0.0, 0.0, 0.0, 1.679087477192603E9, 0.0, 2023-03-17 14:11:17.192
108.0, -3684.4839077572715, -10432.922593703579, 7429.18341507714, -7244.513302387393, -5678.661844570857, -8684.39032845382, -2747.3646697240674, -2951.503151834387, 1.006, -0.002, 0.20800000000000002, 192.0, 31.0, 112.0, 255.0, 240.0, 6.0, 128.0, 0.0, 0.0, 0.0, 1.679087477192616E9, 0.0, 2023-03-17 14:11:17.192
109.0, -3723.085370431587, -10476.866123302714, 7387.564466901358, -7285.662863929613, -5728.617993428468, -8724.355247539908, -2796.8067284592066, -3011.830510119261, 1.006, -0.002, 0.20800000000000002, 192.0, 0.0, 0.0, 0.0, 0.0, 0.0, 0.0, 0.0, 0.0, 0.0, 1.679087477198668E9, 0.0, 2023-03-17 14:11:17.198
110.0, -3684.4839077572715, -10441.706829274515, 7407.926906100143, -7261.500628173427, -5700.320684948049, -8697.846078615914, -2766.5648182111763, -2971.0609282327805, 1.006, -0.002, 0.20800000000000002, 192.0, 0.0, 0.0, 0.0, 0.0, 0.0, 0.0, 0.0, 0.0, 0.0, 1.679087477206173E9, 0.0, 2023-03-17 14:11:17.206
111.0, -3635.0418490221323, -10392.555343217295, 7449.255281598006, -7223.234441665941, -5654.45490532576, -8632.556633061962, -2701.0071517237607, -2905.1679855785355, 1.006, -0.002, 0.20800000000000002, 192.0, 0.0, 0.0, 0.0, 0.0, 0.0, 0.0, 0.0, 0.0, 0.0, 1.679087477206185E9, 0.0, 2023-03-17 14:11:17.206
112.0, -3664.501448214227, -10418.148090618623, 7443.980269906554, -7230.588165591737, -5665.764888020145, -8646.705287302171, -2730.422047426945, -2929.8443114571946, 1.006, -0.002, 0.20800000000000002, 192.0, 0.0, 0.0, 0.0, 0.0, 0.0, 0.0, 0.0, 0.0, 0.0, 1.679087477214256E9, 0.0, 2023-03-17 14:11:17.214
113.0, -3693.983399150777, -10451.54159683485, 7416.152348059696, -7256.2926717153405, -5696.386777923915, -8687.608979655382, -2793.006931901805, -2961.3602711391773, 1.006, -0.002, 0.20800000000000002, 192.0, 0.0, 0.0, 0.0, 0.0, 0.0, 0.0, 0.0, 0.0, 0.0, 1.679087477214274E9, 0.0, 2023-03-17 14:11:17.214
114.0, -3675.051471597132, -10432.788483236847, 7420.108606828286, -7253.6551658696135, -5692.139946477407, -8683.317444719964, -2756.7300506508413, -2950.3855646116217, 1.006, -0.002, 0.20800000000000002, 192.0, 0.0, 0.0, 0.0, 0.0, 0.0, 0.0, 0.0, 0.0, 0.0, 1.679087477222214E9, 0.0, 2023-03-17 14:11:17.222
115.0, -3632.538453643138, -10387.459145481485, 7457.14544739073, -7226.587203334237, -5653.694946014279, -8642.1902349222, -2712.4288931404226, -2910.867680414639, 1.006, -0.002, 0.20800000000000002, 192.0, 0.0, 0.0, 0.0, 0.0, 0.0, 0.0, 0.0, 0.0, 0.0, 1.679087477222231E9, 0.0, 2023-03-17 14:11:17.222
116.0, -3653.1020585420206, -10400.087881098734, 7456.318432845883, -7224.441435866527, -5655.371326848427, -8651.488560615608, -2716.2957449311907, -2918.2661078293454, 1.006, -0.002, 0.20800000000000002, 192.0, 0.0, 0.0, 0.0, 0.0, 0.0, 0.0, 0.0, 0.0, 0.0, 1.67908747722879E9, 0.0, 2023-03-17 14:11:17.228
117.0, -3702.7676347217125, -10452.480370101974, 7408.7315689005345, -7271.134230033664, -5713.016475798664, -8702.227020529153, -2766.5201147222656, -2982.594428371719, 1.006, -0.002, 0.20800000000000002, 192.0, 0.0, 0.0, 0.0, 0.0, 0.0, 0.0, 0.0, 0.0, 0.0, 1.679087477228806E9, 0.0, 2023-03-17 14:11:17.228
118.0, -3695.5703730071036, -10449.0158497114, 7405.267048509962, -7278.264436514907, -5717.062141545074, -8700.662398417282, -2764.8213821436625, -2990.5740011422636, 1.016, -0.004, 0.202, 192.0, 31.0, 192.0, 255.0, 224.0, 6.0, 80.0, 0.0, 0.0, 0.0, 1.679087477236812E9, 0.0, 2023-03-17 14:11:17.236
119.0, -3648.184674761853, -10400.423157265563, 7445.56724376288, -7243.239252953441, -5671.26341715615, -8655.869502528847, -2727.4939689032994, -2947.6139482991634, 1.016, -0.004, 0.202, 192.0, 0.0, 0.0, 0.0, 0.0, 0.0, 0.0, 0.0, 0.0, 0.0, 1.679087477236825E9, 0.0, 2023-03-17 14:11:17.236
120.0, -3652.8785410974674, -10397.517430486374, 7459.313566602894, -7225.804892278301, -5654.633719281402, -8644.872444256836, -2722.9565647788722, -2930.2913463463005, 1.016, -0.004, 0.202, 192.0, 0.0, 0.0, 0.0, 0.0, 0.0, 0.0, 0.0, 0.0, 0.0, 1.679087477244887E9, 0.0, 2023-03-17 14:11:17.244
121.0, -3711.5518702926483, -10459.297652160842, 7408.329237500338, -7272.6094451677145, -5711.65301938689, -8712.218250300677, -2787.843678932629, -2987.310646451789, 1.016, -0.004, 0.202, 192.0, 0.0, 0.0, 0.0, 0.0, 0.0, 0.0, 0.0, 0.0, 0.0, 1.679087477244899E9, 0.0, 2023-03-17 14:11:17.244
122.0, -3720.090236674576, -10470.585283110773, 7390.291379724906, -7291.519020976904, -5734.496502220214, -8715.548660224516, -2790.9729231563715, -3004.432082704554, 1.016, -0.004, 0.202, 192.0, 0.0, 0.0, 0.0, 0.0, 0.0, 0.0, 0.0, 0.0, 0.0, 1.67908747725209E9, 0.0, 2023-03-17 14:11:17.252
123.0, -3680.9970356222434, -10433.436683826052, 7415.6606096816795, -7271.022471311388, -5701.952362293287, -8678.400060939797, -2763.1673530539697, -2966.992910741915, 1.016, -0.004, 0.202, 192.0, 0.0, 0.0, 0.0, 0.0, 0.0, 0.0, 0.0, 0.0, 0.0, 1.679087477252099E9, 0.0, 2023-03-17 14:11:17.252
124.0, -3652.9455963308333, -10401.54074448833, 7455.133790389752, -7225.3578573891955, -5653.650242525368, -8640.71501978815, -2740.0780010316375, -2906.7773111793176, 1.016, -0.004, 0.202, 192.0, 0.0, 0.0, 0.0, 0.0, 0.0, 0.0, 0.0, 0.0, 0.0, 1.679087477258481E9, 0.0, 2023-03-17 14:11:17.258
125.0, -3711.1942423813634, -10457.889492260158, 7414.677132925646, -7266.663881142603, -5703.807557083078, -8676.343700449908, -2806.283868108257, -2959.0356897158254, 1.016, -0.004, 0.202, 192.0, 0.0, 0.0, 0.0, 0.0, 0.0, 0.0, 0.0, 0.0, 0.0, 1.679087477258495E9, 0.0, 2023-03-17 14:11:17.258
126.0, -3719.598498296559, -10470.540579621862, 7395.029949549431, -7284.567628451304, -5722.583022425535, -8713.402892756807, -2795.9126586809944, -2988.785861585839, 1.016, -0.004, 0.202, 192.0, 0.0, 0.0, 0.0, 0.0, 0.0, 0.0, 0.0, 0.0, 0.0, 1.679087477266663E9, 0.0, 2023-03-17 14:11:17.266
127.0, -3655.9630818323, -10409.743834703426, 7440.739266960534, -7238.455979640005, -5669.40822236636, -8672.499200403596, -2721.68251534492, -2956.1970181700017, 1.016, -0.004, 0.202, 192.0, 0.0, 0.0, 0.0, 0.0, 0.0, 0.0, 0.0, 0.0, 0.0, 1.679087477274616E9, 0.0, 2023-03-17 14:11:17.274
128.0, -3645.3460032160287, -10393.516468228874, 7461.124057903774, -7220.552232331304, -5644.508379043148, -8641.340868632897, -2705.1422244479927, -2922.334125320211, 1.012, -0.004, 0.20600000000000002, 192.0, 31.0, 160.0, 255.0, 224.0, 6.0, 112.0, 0.0, 0.0, 0.0, 1.679087477274639E9, 0.0, 2023-03-17 14:11:17.274
129.0, -3678.694805943347, -10422.864308698692, 7449.657612998201, -7230.722276058469, -5662.635643796402, -8659.043450241501, -2737.2169777413583, -2919.4954537743874, 1.012, -0.004, 0.20600000000000002, 192.0, 0.0, 0.0, 0.0, 0.0, 0.0, 0.0, 0.0, 0.0, 0.0, 1.67908747728172E9, 0.0, 2023-03-17 14:11:17.281
130.0, -3705.49454754526, -10454.715544547504, 7415.437092237126, -7265.143962519642, -5704.098129760996, -8704.797471141514, -2771.5939607136206, -2963.4836868624316, 1.012, -0.004, 0.20600000000000002, 192.0, 0.0, 0.0, 0.0, 0.0, 0.0, 0.0, 0.0, 0.0, 0.0, 1.679087477281732E9, 0.0, 2023-03-17 14:11:17.281
131.0, -3673.7997739076345, -10423.579564521262, 7433.430246523649, -7250.14594199013, -5687.155507463874, -8680.411717940775, -2760.6192541860646, -2957.448715859499, 1.012, -0.004, 0.20600000000000002, 192.0, 0.0, 0.0, 0.0, 0.0, 0.0, 0.0, 0.0, 0.0, 0.0, 1.679087477289173E9, 0.0, 2023-03-17 14:11:17.289
132.0, -3646.7765148611684, -10394.76816591837, 7460.498209059026, -7225.089636455731, -5655.438382081793, -8653.52256936104, -2736.121742263048, -2938.695602261496, 1.012, -0.004, 0.20600000000000002, 192.0, 0.0, 0.0, 0.0, 0.0, 0.0, 0.0, 0.0, 0.0, 0.0, 1.679087477289187E9, 0.0, 2023-03-17 14:11:17.289
133.0, -3688.440166525861, -10434.35310534872, 7435.687772713634, -7244.088619242742, -5682.729862061723, -8682.870409830859, -2758.4064314849893, -2965.942378752515, 1.012, -0.004, 0.20600000000000002, 192.0, 0.0, 0.0, 0.0, 0.0, 0.0, 0.0, 0.0, 0.0, 0.0, 1.679087477297135E9, 0.0, 2023-03-17 14:11:17.297
134.0, -3712.982381937788, -10464.527960363384, 7404.641199665213, -7272.4976864454375, -5719.900813090899, -8702.58464844044, -2789.900039422517, -3009.59533567373, 1.012, -0.004, 0.20600000000000002, 192.0, 0.0, 0.0, 0.0, 0.0, 0.0, 0.0, 0.0, 0.0, 0.0, 1.679087477297147E9, 0.0, 2023-03-17 14:11:17.297
135.0, -3685.1321083464754, -10440.276317629376, 7413.939525358621, -7259.690136872547, -5702.533507649125, -8693.331026235941, -2806.417978574989, -2985.075472006258, 1.012, -0.004, 0.20600000000000002, 192.0, 0.0, 0.0, 0.0, 0.0, 0.0, 0.0, 0.0, 0.0, 0.0, 1.679087477304304E9, 0.0, 2023-03-17 14:11:17.304
136.0, -3646.597700905526, -10399.730253187448, 7451.021069409975, -7230.588165591737, -5666.569550820536, -8648.202854180678, -2745.4647714453663, -2931.990078924904, 1.012, -0.004, 0.20600000000000002, 192.0, 0.0, 0.0, 0.0, 0.0, 0.0, 0.0, 0.0, 0.0, 0.0, 1.679087477304313E9, 0.0, 2023-03-17 14:11:17.304
137.0, -3658.2876632556518, -10403.552401489307, 7463.71686026059, -7217.311229385285, -5658.768792005634, -8639.70919128766, -2708.740855305297, -2923.7646369653507, 1.012, -0.004, 0.20600000000000002, 192.0, 0.0, 0.0, 0.0, 0.0, 0.0, 0.0, 0.0, 0.0, 0.0, 1.679087477311795E9, 0.0, 2023-03-17 14:11:17.311
138.0, -3705.11456788952, -10453.977936980478, 7417.784025404933, -7261.210055495508, -5705.930972806332, -8698.069596060466, -2768.3976612565116, -2963.684852562529, 1.008, -0.004, 0.212, 192.0, 31.0, 128.0, 255.0, 224.0, 6.0, 160.0, 0.0, 0.0, 0.0, 1.679087477311817E9, 0.0, 2023-03-17 14:11:17.311
139.0, -3684.1039281015314, -10435.180119893566, 7428.937545888132, -7252.001136779922, -5691.312931932561, -8681.015215041067, -2755.612463428076, -2941.6683842740517, 1.008, -0.004, 0.212, 192.0, 0.0, 0.0, 0.0, 0.0, 0.0, 0.0, 0.0, 0.0, 0.0, 1.679087477319803E9, 0.0, 2023-03-17 14:11:17.319
140.0, -3642.239110736741, -10391.817735650271, 7463.895674216232, -7225.447264367016, -5656.913597215843, -8640.893833743792, -2717.9497740208835, -2918.1767008515244, 1.008, -0.004, 0.212, 192.0, 0.0, 0.0, 0.0, 0.0, 0.0, 0.0, 0.0, 0.0, 0.0, 1.67908747731982E9, 0.0, 2023-03-17 14:11:17.319
141.0, -3672.4810209847715, -10415.73410221745, 7450.126999631763, -7234.611479593692, -5670.3693473779385, -8649.1416274478, -2748.057573802182, -2935.8122272267615, 1.008, -0.004, 0.212, 192.0, 0.0, 0.0, 0.0, 0.0, 0.0, 0.0, 0.0, 0.0, 0.0, 1.679087477326677E9, 0.0, 2023-03-17 14:11:17.326
142.0, -3712.40123658195, -10460.035259727867, 7411.190260790618, -7267.312081731807, -5707.495594918203, -8686.491392432617, -2774.678501448453, -2974.9054282790935, 1.008, -0.004, 0.212, 192.0, 0.0, 0.0, 0.0, 0.0, 0.0, 0.0, 0.0, 0.0, 0.0, 1.679087477334003E9, 0.0, 2023-03-17 14:11:17.334
143.0, -3697.269105585707, -10449.708753789515, 7410.519708456959, -7265.322776475285, -5703.31581870506, -8682.713947619672, -2775.863143904584, -2966.6129310861747, 1.008, -0.004, 0.212, 192.0, 0.0, 0.0, 0.0, 0.0, 0.0, 0.0, 0.0, 0.0, 0.0, 1.67908747733402E9, 0.0, 2023-03-17 14:11:17.334
144.0, -3636.6511746229144, -10389.873133882658, 7456.296081101428, -7222.8321102657455, -5652.242082624684, -8643.911319245259, -2738.2675097307574, -2921.082427630714, 1.008, -0.004, 0.212, 192.0, 0.0, 0.0, 0.0, 0.0, 0.0, 0.0, 0.0, 0.0, 0.0, 1.679087477341421E9, 0.0, 2023-03-17 14:11:17.341
145.0, -3646.888273583445, -10391.683625183538, 7467.226084140073, -7214.494909583916, -5642.742591231178, -8644.894796001292, -2729.572681137643, -2911.8064536817615, 1.008, -0.004, 0.212, 192.0, 0.0, 0.0, 0.0, 0.0, 0.0, 0.0, 0.0, 0.0, 0.0, 1.679087477341435E9, 0.0, 2023-03-17 14:11:17.341
146.0, -3699.593687009059, -10444.813721753802, 7427.976420876554, -7255.3538984482175, -5693.011664511164, -8680.38936619632, -2752.8855506045284, -2965.4506403744986, 1.008, -0.004, 0.212, 192.0, 0.0, 0.0, 0.0, 0.0, 0.0, 0.0, 0.0, 0.0, 0.0, 1.67908747734947E9, 0.0, 2023-03-17 14:11:17.349
147.0, -3702.6111725105256, -10453.083867202267, 7409.089196811819, -7267.110916031709, -5705.4168826838595, -8690.67116864576, -2786.547277754221, -2987.6012191297077, 1.008, -0.004, 0.212, 192.0, 0.0, 0.0, 0.0, 0.0, 0.0, 0.0, 0.0, 0.0, 0.0, 1.679087477349484E9, 0.0, 2023-03-17 14:11:17.349
148.0, -3662.5568464466155, -10415.801157450815, 7432.044438367419, -7245.675593099069, -5673.386832879404, -8663.357336921375, -2756.908864606484, -2965.6741578190517, 1.008, -0.004, 0.212, 192.0, 0.0, 0.0, 0.0, 0.0, 0.0, 0.0, 0.0, 0.0, 0.0, 1.679087477357463E9, 0.0, 2023-03-17 14:11:17.357
149.0, -3646.4859421832493, -10395.952808374503, 7462.219293382084, -7216.506566584893, -5640.529768530103, -8642.033772711013, -2715.3793234085233, -2920.3895235525997, 1.006, 0.0, 0.212, 192.0, 31.0, 112.0, 0.0, 0.0, 6.0, 160.0, 0.0, 0.0, 0.0, 1.679087477357482E9, 0.0, 2023-03-17 14:11:17.357
150.0, -3689.758919448724, -10440.119855418188, 7434.391371535226, -7244.468598898483, -5676.024338725131, -8671.962758536669, -2748.8845883470285, -2943.3894685971104, 1.006, 0.0, 0.212, 192.0, 0.0, 0.0, 0.0, 0.0, 0.0, 0.0, 0.0, 0.0, 0.0, 1.679087477364041E9, 0.0, 2023-03-17 14:11:17.364
151.0, -3706.343913834562, -10462.270434173399, 7408.999789833998, -7268.988462565954, -5701.4829756597255, -8694.493316947617, -2782.859239919095, -2959.795649027306, 1.006, 0.0, 0.212, 192.0, 0.0, 0.0, 0.0, 0.0, 0.0, 0.0, 0.0, 0.0, 0.0, 1.679087477364057E9, 0.0, 2023-03-17 14:11:17.364
152.0, -3669.3517767610288, -10423.221936609976, 7431.843272667322, -7251.822322824279, -5674.817344524544, -8666.575988122939, -2765.5142862217767, -2936.885110960616, 1.006, 0.0, 0.212, 192.0, 0.0, 0.0, 0.0, 0.0, 0.0, 0.0, 0.0, 0.0, 0.0, 1.679087477371955E9, 0.0, 2023-03-17 14:11:17.371
153.0, -3637.7464101012242, -10385.872171625158, 7464.521523060981, -7217.467691596472, -5639.9709749187205, -8634.61299355185, -2728.455093914878, -2914.466311271943, 1.006, 0.0, 0.212, 192.0, 0.0, 0.0, 0.0, 0.0, 0.0, 0.0, 0.0, 0.0, 0.0, 1.679087477371973E9, 0.0, 2023-03-17 14:11:17.371
154.0, -3673.0845180850647, -10418.72923597446, 7442.102723372308, -7230.632869080648, -5662.479181585215, -8662.91030203227, -2737.4851986748217, -2941.6460325295966, 1.006, 0.0, 0.212, 192.0, 0.0, 0.0, 0.0, 0.0, 0.0, 0.0, 0.0, 0.0, 0.0, 1.679087477380728E9, 0.0, 2023-03-17 14:11:17.380
155.0, -3697.8055474526345, -10446.624213054683, 7409.603286934292, -7259.2878054723515, -5696.565591879558, -8709.603096199406, -2781.4287282739556, -2967.3952421421104, 1.006, 0.0, 0.212, 192.0, 0.0, 0.0, 0.0, 0.0, 0.0, 0.0, 0.0, 0.0, 0.0, 1.67908747738074E9, 0.0, 2023-03-17 14:11:17.380
156.0, -3658.220608022286, -10407.016921879878, 7435.196034335618, -7237.204281950508, -5667.105992687463, -8692.973398324657, -2763.9273123654502, -2948.955052966482, 1.006, 0.0, 0.212, 192.0, 0.0, 0.0, 0.0, 0.0, 0.0, 0.0, 0.0, 0.0, 0.0, 1.679087477387009E9, 0.0, 2023-03-17 14:11:17.387
157.0, -3635.2653664666855, -10380.48540121143, 7461.436982326149, -7218.920554986067, -5641.960280175243, -8652.226168182631, -2716.2733931867356, -2929.0172969123482, 1.006, 0.0, 0.212, 192.0, 0.0, 0.0, 0.0, 0.0, 0.0, 0.0, 0.0, 0.0, 0.0, 1.679087477394383E9, 0.0, 2023-03-17 14:11:17.394
158.0, -3675.6549686974254, -10417.231669095954, 7442.974441406065, -7235.013810993888, -5665.496667086682, -8659.535188619517, -2742.7155068773636, -2951.5478553232974, 1.006, 0.0, 0.212, 192.0, 0.0, 0.0, 0.0, 0.0, 0.0, 0.0, 0.0, 0.0, 0.0, 1.679087477394396E9, 0.0, 2023-03-17 14:11:17.394
159.0, -3708.6461435134584, -10454.536730591863, 7408.284534011428, -7270.374270722184, -5706.5344699066245, -8709.49133747713, -2795.1079958806035, -2984.8072510727943, 1.01, -0.002, 0.20600000000000002, 192.0, 31.0, 144.0, 255.0, 240.0, 6.0, 112.0, 0.0, 0.0, 0.0, 1.67908747740135E9, 0.0, 2023-03-17 14:11:17.401
160.0, -3671.0281575951767, -10418.416311552086, 7433.318487801372, -7248.737782089446, -5676.024338725131, -8683.809183097981, -2762.5415042092213, -2957.3593088816774, 1.01, -0.002, 0.20600000000000002, 192.0, 0.0, 0.0, 0.0, 0.0, 0.0, 0.0, 0.0, 0.0, 0.0, 1.679087477401363E9, 0.0, 2023-03-17 14:11:17.401
161.0, -3617.76395055818, -10363.967462058958, 7482.112345947307, -7204.727197256947, -5623.385980532883, -8631.059066183456, -2704.784596536708, -2920.925965419527, 1.01, -0.002, 0.20600000000000002, 192.0, 0.0, 0.0, 0.0, 0.0, 0.0, 0.0, 0.0, 0.0, 0.0, 1.679087477408982E9, 0.0, 2023-03-17 14:11:17.408
162.0, -3649.503427684716, -10389.180229804544, 7469.52831381897, -7212.662066538581, -5635.232405094195, -8637.183444164211, -2734.8923963180064, -2906.7996629237728, 1.01, -0.002, 0.20600000000000002, 192.0, 0.0, 0.0, 0.0, 0.0, 0.0, 0.0, 0.0, 0.0, 0.0, 1.679087477409007E9, 0.0, 2023-03-17 14:11:17.409
163.0, -3697.559678263626, -10442.82441649728, 7420.622696950758, -7259.332508961262, -5688.407205153371, -8683.853886586892, -2777.673635205464, -2959.5721315827527, 1.01, -0.002, 0.20600000000000002, 192.0, 0.0, 0.0, 0.0, 0.0, 0.0, 0.0, 0.0, 0.0, 0.0, 1.679087477417041E9, 0.0, 2023-03-17 14:11:17.417
164.0, -3679.5218204881935, -10427.602878523217, 7424.377790019249, -7253.252834469418, -5678.50538235967, -8679.316482462464, -2759.389908241023, -2960.175628683046, 1.01, -0.002, 0.20600000000000002, 192.0, 0.0, 0.0, 0.0, 0.0, 0.0, 0.0, 0.0, 0.0, 0.0, 1.67908747741706E9, 0.0, 2023-03-17 14:11:17.417
165.0, -3637.992279290233, -10385.760412902882, 7453.837389211344, -7225.223746922464, -5640.172140618818, -8648.202854180678, -2732.3442974501013, -2921.216538097446, 1.01, -0.002, 0.20600000000000002, 192.0, 0.0, 0.0, 0.0, 0.0, 0.0, 0.0, 0.0, 0.0, 0.0, 1.679087477424894E9, 0.0, 2023-03-17 14:11:17.424
166.0, -3669.977625605777, -10411.82254693777, 7442.61681349478, -7237.964241261989, -5652.64441402488, -8655.62363333984, -2756.6182919285648, -2939.0308784283257, 1.01, -0.002, 0.20600000000000002, 192.0, 0.0, 0.0, 0.0, 0.0, 0.0, 0.0, 0.0, 0.0, 0.0, 1.679087477424911E9, 0.0, 2023-03-17 14:11:17.424
167.0, -3718.726780262802, -10465.466733630506, 7402.137804286219, -7278.979692337477, -5701.438272170815, -8699.790680383525, -2802.7522924843183, -2987.8694400631716, 1.01, -0.002, 0.20600000000000002, 192.0, 0.0, 0.0, 0.0, 0.0, 0.0, 0.0, 0.0, 0.0, 0.0, 1.679087477431527E9, 0.0, 2023-03-17 14:11:17.431
168.0, -3698.9007829309444, -10449.284070644864, 7410.653818923691, -7269.457849199516, -5692.654036599879, -8695.09681404791, -2758.1158588070703, -2965.0706607187585, 1.01, -0.002, 0.20600000000000002, 192.0, 0.0, 0.0, 0.0, 0.0, 0.0, 0.0, 0.0, 0.0, 0.0, 1.679087477431539E9, 0.0, 2023-03-17 14:11:17.431
169.0, -3641.9038345699114, -10393.695282184515, 7454.172665378173, -7226.117816700676, -5642.943756931277, -8645.028906468024, -2719.067361243649, -2926.2009771109792, 1.0, -0.002, 0.212, 192.0, 31.0, 64.0, 255.0, 240.0, 6.0, 160.0, 0.0, 0.0, 0.0, 1.679087477439673E9, 0.0, 2023-03-17 14:11:17.439
170.0, -3641.009764791699, -10386.09568906971, 7469.930645219165, -7205.554211801793, -5622.201338076751, -8628.42156033773, -2697.877907500018, -2910.57710773672, 1.0, -0.002, 0.212, 192.0, 0.0, 0.0, 0.0, 0.0, 0.0, 0.0, 0.0, 0.0, 0.0, 1.679087477439689E9, 0.0, 2023-03-17 14:11:17.439
171.0, -3699.1913556088634, -10447.741800277448, 7416.5993829488025, -7244.446247154027, -5673.40918462386, -8689.307712233987, -2748.996347069305, -2973.3184544227665, 1.0, -0.002, 0.212, 192.0, 0.0, 0.0, 0.0, 0.0, 0.0, 0.0, 0.0, 0.0, 0.0, 1.679087477446578E9, 0.0, 2023-03-17 14:11:17.446
172.0, -3700.3536463205396, -10454.02264046939, 7405.490565954515, -7252.179950735564, -5683.087489973008, -8694.538020436528, -2778.6571119614973, -2968.177553198046, 1.0, -0.002, 0.212, 192.0, 0.0, 0.0, 0.0, 0.0, 0.0, 0.0, 0.0, 0.0, 0.0, 1.679087477454696E9, 0.0, 2023-03-17 14:11:17.454
173.0, -3642.86495958149, -10393.985854862434, 7453.882092700254, -7220.127549186654, -5641.714410986235, -8641.273813399532, -2721.257832200269, -2917.5955554956863, 1.0, -0.002, 0.212, 192.0, 0.0, 0.0, 0.0, 0.0, 0.0, 0.0, 0.0, 0.0, 0.0, 1.679087477454748E9, 0.0, 2023-03-17 14:11:17.454
174.0, -3640.4956746692274, -10386.050985580801, 7466.734345762056, -7215.679552040047, -5632.237271337184, -8626.052275425467, -2700.850689512574, -2923.3846573096107, 1.0, -0.002, 0.212, 192.0, 0.0, 0.0, 0.0, 0.0, 0.0, 0.0, 0.0, 0.0, 0.0, 1.679087477461189E9, 0.0, 2023-03-17 14:11:17.461
175.0, -3674.6491401969365, -10423.288991843343, 7442.0133163944865, -7223.413255621584, -5647.637623266891, -8653.880197272325, -2740.7485533652966, -2927.7432474783955, 1.0, -0.002, 0.212, 192.0, 0.0, 0.0, 0.0, 0.0, 0.0, 0.0, 0.0, 0.0, 0.0, 1.679087477461206E9, 0.0, 2023-03-17 14:11:17.461
176.0, -3692.798756694646, -10448.859387500213, 7407.591629933314, -7250.436514668049, -5678.147754448385, -8705.91505836428, -2784.9826556423495, -2950.318509378256, 1.0, -0.002, 0.212, 192.0, 0.0, 0.0, 0.0, 0.0, 0.0, 0.0, 0.0, 0.0, 0.0, 1.67908747746931E9, 0.0, 2023-03-17 14:11:17.469
177.0, -3649.8387038515457, -10401.652503210606, 7446.260147840995, -7232.108084214698, -5651.21390237974, -8662.217397954155, -2736.2782044742353, -2927.9444131784935, 1.0, -0.002, 0.212, 192.0, 0.0, 0.0, 0.0, 0.0, 0.0, 0.0, 0.0, 0.0, 0.0, 1.679087477469337E9, 0.0, 2023-03-17 14:11:17.469
178.0, -3637.701706612314, -10380.619511678162, 7472.724613276078, -7220.149900931108, -5634.248928338162, -8623.258307368555, -2706.483329115311, -2908.252526313368, 1.0, -0.002, 0.212, 192.0, 0.0, 0.0, 0.0, 0.0, 0.0, 0.0, 0.0, 0.0, 0.0, 1.679087477477149E9, 0.0, 2023-03-17 14:11:17.477
179.0, -3679.722986188291, -10417.388131307142, 7453.8150374668885, -7239.864139540689, -5661.473353084726, -8641.676144799727, -2743.6542801444866, -2934.985212681915, 1.0, 0.002, 0.20800000000000002, 192.0, 31.0, 64.0, 0.0, 16.0, 6.0, 128.0, 0.0, 0.0, 0.0, 1.679087477477161E9, 0.0, 2023-03-17 14:11:17.477
180.0, -3705.6063062675366, -10449.507588089418, 7421.919098129166, -7266.194494509041, -5696.990275024209, -8674.868485315857, -2803.9369349404496, -2982.929704538549, 1.0, 0.002, 0.20800000000000002, 192.0, 0.0, 0.0, 0.0, 0.0, 0.0, 0.0, 0.0, 0.0, 0.0, 1.679087477484313E9, 0.0, 2023-03-17 14:11:17.484
181.0, -3676.459631497816, -10422.73019823196, 7432.267955811973, -7253.163427491597, -5680.740556805201, -8666.1960084672, -2748.839884858118, -2975.9336085240375, 1.0, 0.002, 0.20800000000000002, 192.0, 0.0, 0.0, 0.0, 0.0, 0.0, 0.0, 0.0, 0.0, 0.0, 1.679087477484326E9, 0.0, 2023-03-17 14:11:17.484
182.0, -3634.080724010554, -10380.463049466975, 7466.577883550869, -7213.33261887224, -5636.104123127952, -8634.814159251948, -2692.4687853418336, -2942.920081963549, 1.0, 0.002, 0.20800000000000002, 192.0, 0.0, 0.0, 0.0, 0.0, 0.0, 0.0, 0.0, 0.0, 0.0, 1.679087477491809E9, 0.0, 2023-03-17 14:11:17.491
183.0, -3668.994148849744, -10411.621381237672, 7448.8082467089, -7225.961354489488, -5653.7843529921, -8649.432200125719, -2718.6650298434533, -2930.5148637908537, 1.0, 0.002, 0.20800000000000002, 192.0, 0.0, 0.0, 0.0, 0.0, 0.0, 0.0, 0.0, 0.0, 0.0, 1.679087477491821E9, 0.0, 2023-03-17 14:11:17.491
184.0, -3704.9357539338775, -10454.626137569683, 7409.268010767461, -7265.523942175382, -5697.45966165777, -8696.773194882058, -2778.7241671948636, -2963.438983373521, 1.0, 0.002, 0.20800000000000002, 192.0, 0.0, 0.0, 0.0, 0.0, 0.0, 0.0, 0.0, 0.0, 0.0, 1.679087477499863E9, 0.0, 2023-03-17 14:11:17.499
185.0, -3675.3867477639615, -10426.753512233916, 7425.8530051533, -7252.5375786468485, -5680.628798082924, -8678.95885455118, -2772.510382236288, -2946.764582009862, 1.0, 0.002, 0.20800000000000002, 192.0, 0.0, 0.0, 0.0, 0.0, 0.0, 0.0, 0.0, 0.0, 0.0, 1.679087477499875E9, 0.0, 2023-03-17 14:11:17.499
186.0, -3651.313918985596, -10400.981950876947, 7441.476874527559, -7240.266470940885, -5661.249835640173, -8658.372897907842, -2739.295689975702, -2929.3972765680883, 1.0, 0.002, 0.20800000000000002, 192.0, 0.0, 0.0, 0.0, 0.0, 0.0, 0.0, 0.0, 0.0, 0.0, 1.679087477507136E9, 0.0, 2023-03-17 14:11:17.507
187.0, -3670.1564395614196, -10413.118948116178, 7443.37677280626, -7236.310212172296, -5660.445172839782, -8655.154246706277, -2728.3656869370566, -2929.665497501552, 1.0, 0.002, 0.20800000000000002, 192.0, 0.0, 0.0, 0.0, 0.0, 0.0, 0.0, 0.0, 0.0, 0.0, 1.679087477507158E9, 0.0, 2023-03-17 14:11:17.507
188.0, -3703.862870200023, -10450.044029956345, 7410.631467179235, -7260.986538050955, -5694.755100578678, -8692.839287857925, -2767.0118531002827, -2967.1046694641914, 1.0, 0.002, 0.20800000000000002, 192.0, 0.0, 0.0, 0.0, 0.0, 0.0, 0.0, 0.0, 0.0, 0.0, 1.679087477513475E9, 0.0, 2023-03-17 14:11:17.513
189.0, -3674.827954152579, -10424.20541336601, 7428.870490654766, -7239.238290695941, -5672.246893912184, -8681.976340052646, -2769.314082779179, -2955.7052797919846, 1.006, 0.0, 0.212, 192.0, 31.0, 112.0, 0.0, 0.0, 6.0, 160.0, 0.0, 0.0, 0.0, 1.679087477521564E9, 0.0, 2023-03-17 14:11:17.521
190.0, -3624.2906599391295, -10374.137505786122, 7472.411688853704, -7205.017769934866, -5628.526881757603, -8633.450702840175, -2729.9526607933835, -2917.752017706873, 1.006, 0.0, 0.212, 192.0, 0.0, 0.0, 0.0, 0.0, 0.0, 0.0, 0.0, 0.0, 0.0, 1.679087477521587E9, 0.0, 2023-03-17 14:11:17.521
191.0, -3635.824160078068, -10379.52427619985, 7478.133735434263, -7199.318075098762, -5623.9447741442655, -8603.566420503428, -2688.6242852955206, -2895.087348829192, 1.006, 0.0, 0.212, 192.0, 0.0, 0.0, 0.0, 0.0, 0.0, 0.0, 0.0, 0.0, 0.0, 1.67908747752953E9, 0.0, 2023-03-17 14:11:17.529
192.0, -3696.978532907788, -10443.338506619753, 7423.930755130144, -7256.069154270787, -5687.669597586346, -8659.602243852883, -2747.5881871686206, -2954.6994512914957, 1.006, 0.0, 0.212, 192.0, 0.0, 0.0, 0.0, 0.0, 0.0, 0.0, 0.0, 0.0, 0.0, 1.679087477529548E9, 0.0, 2023-03-17 14:11:17.529
193.0, -3696.8444224410564, -10444.50079733143, 7413.492490469514, -7267.759116620912, -5699.739539592211, -8677.438935928218, -2743.4978179332993, -2973.2737509338563, 1.006, 0.0, 0.212, 192.0, 0.0, 0.0, 0.0, 0.0, 0.0, 0.0, 0.0, 0.0, 0.0, 1.679087477536587E9, 0.0, 2023-03-17 14:11:17.536
194.0, -3641.568558403082, -10389.381395504643, 7452.742153733034, -7230.074075469265, -5658.232350138706, -8641.676144799727, -2701.5659453351436, -2940.729611006929, 1.006, 0.0, 0.212, 192.0, 0.0, 0.0, 0.0, 0.0, 0.0, 0.0, 0.0, 0.0, 0.0, 1.679087477536602E9, 0.0, 2023-03-17 14:11:17.536
195.0, -3629.856244308501, -10372.1482005296, 7477.440831356148, -7201.486194310927, -5629.5774137470025, -8615.2340311091, -2682.701073014864, -2911.918212404038, 1.006, 0.0, 0.212, 192.0, 0.0, 0.0, 0.0, 0.0, 0.0, 0.0, 0.0, 0.0, 0.0, 1.679087477544081E9, 0.0, 2023-03-17 14:11:17.544
196.0, -3693.3575503060283, -10434.218994881987, 7427.439979009626, -7250.190645479041, -5685.412071396359, -8663.871427043847, -2742.1343615215255, -2974.212524200979, 1.006, 0.0, 0.212, 192.0, 0.0, 0.0, 0.0, 0.0, 0.0, 0.0, 0.0, 0.0, 0.0, 1.679087477544093E9, 0.0, 2023-03-17 14:11:17.544
197.0, -3688.887201414967, -10434.218994881987, 7421.337952773328, -7252.67168911358, -5689.234219698217, -8665.078421244434, -2747.476428446344, -2960.2873874053225, 1.006, 0.0, 0.212, 192.0, 0.0, 0.0, 0.0, 0.0, 0.0, 0.0, 0.0, 0.0, 0.0, 1.679087477552137E9, 0.0, 2023-03-17 14:11:17.552
198.0, -3635.6900496113362, -10380.552456444795, 7461.101706159318, -7219.389941619628, -5644.664841254335, -8632.400170850775, -2725.705829346875, -2914.868642672139, 1.006, 0.0, 0.212, 192.0, 0.0, 0.0, 0.0, 0.0, 0.0, 0.0, 0.0, 0.0, 0.0, 1.67908747755215E9, 0.0, 2023-03-17 14:11:17.552
199.0, -3637.724058356769, -10376.931473843035, 7464.163895149696, -7214.696075284014, -5637.109951628441, -8624.88998471379, -2733.037201528216, -2914.9356979055046, 1.006, -0.002, 0.20800000000000002, 192.0, 31.0, 112.0, 255.0, 240.0, 6.0, 128.0, 0.0, 0.0, 0.0, 1.679087477560101E9, 0.0, 2023-03-17 14:11:17.560
200.0, -3693.044625883654, -10432.766131492393, 7422.075560340352, -7251.062363512799, -5683.333359162016, -8665.748973578093, -2748.996347069305, -2943.7470965083953, 1.006, -0.002, 0.20800000000000002, 192.0, 0.0, 0.0, 0.0, 0.0, 0.0, 0.0, 0.0, 0.0, 0.0, 1.679087477560119E9, 0.0, 2023-03-17 14:11:17.560
201.0, -3712.2894778596733, -10457.710678304515, 7395.901667583188, -7279.359671993217, -5719.006743312686, -8699.634218172338, -2760.149867552503, -2987.2212394739677, 1.006, -0.002, 0.20800000000000002, 192.0, 0.0, 0.0, 0.0, 0.0, 0.0, 0.0, 0.0, 0.0, 0.0, 1.679087477566807E9, 0.0, 2023-03-17 14:11:17.566
202.0, -3650.419849207384, -10397.942113631025, 7442.147426861218, -7231.169310947575, -5665.139039175397, -8671.560427136472, -2729.773846837741, -2957.828695515239, 1.006, -0.002, 0.20800000000000002, 192.0, 0.0, 0.0, 0.0, 0.0, 0.0, 0.0, 0.0, 0.0, 0.0, 1.679087477566822E9, 0.0, 2023-03-17 14:11:17.566
203.0, -3629.7891890751353, -10373.757526130383, 7466.063793428397, -7208.214069391975, -5634.763018460634, -8633.294240628988, -2712.4065413959675, -2901.85992739915, 1.006, -0.002, 0.20800000000000002, 192.0, 0.0, 0.0, 0.0, 0.0, 0.0, 0.0, 0.0, 0.0, 0.0, 1.679087477573796E9, 0.0, 2023-03-17 14:11:17.573
204.0, -3665.9990150927324, -10405.049968367812, 7454.396182822727, -7222.563889332282, -5657.159466404852, -8628.0862841709, -2736.1440940075036, -2908.2301745689124, 1.006, -0.002, 0.20800000000000002, 192.0, 0.0, 0.0, 0.0, 0.0, 0.0, 0.0, 0.0, 0.0, 0.0, 1.679087477581705E9, 0.0, 2023-03-17 14:11:17.581
205.0, -3713.5188238047153, -10456.682498059572, 7404.484737454026, -7278.040919070354, -5720.683124146834, -8691.632293657338, -2770.6551874464976, -2980.3816056706437, 1.006, -0.002, 0.20800000000000002, 192.0, 0.0, 0.0, 0.0, 0.0, 0.0, 0.0, 0.0, 0.0, 0.0, 1.679087477581716E9, 0.0, 2023-03-17 14:11:17.581
206.0, -3676.079651842076, -10422.618439509683, 7425.160101075185, -7257.678479871569, -5693.704568589279, -8667.984148023623, -2740.25681498728, -2958.856875760183, 1.006, -0.002, 0.20800000000000002, 192.0, 0.0, 0.0, 0.0, 0.0, 0.0, 0.0, 0.0, 0.0, 0.0, 1.679087477589791E9, 0.0, 2023-03-17 14:11:17.589
207.0, -3613.3606569004846, -10358.75950560087, 7482.939360492153, -7201.195621633008, -5629.309192813539, -8610.495461284574, -2685.6962067718755, -2899.445938997977, 1.006, -0.002, 0.20800000000000002, 192.0, 0.0, 0.0, 0.0, 0.0, 0.0, 0.0, 0.0, 0.0, 0.0, 1.679087477589806E9, 0.0, 2023-03-17 14:11:17.589
208.0, -3654.2643492536963, -10393.851744395703, 7465.125020161274, -7217.422988107561, -5648.978727934209, -8632.17665340622, -2721.0790182446267, -2925.15044512158, 1.006, -0.002, 0.20800000000000002, 192.0, 0.0, 0.0, 0.0, 0.0, 0.0, 0.0, 0.0, 0.0, 0.0, 1.679087477596401E9, 0.0, 2023-03-17 14:11:17.596
209.0, -3709.4731580583048, -10450.558120078817, 7413.201917791595, -7270.933064333566, -5705.1263100059405, -8682.423374941753, -2801.835870961651, -2981.8121173157833, 1.006, -0.006, 0.20600000000000002, 192.0, 31.0, 112.0, 255.0, 208.0, 6.0, 112.0, 0.0, 0.0, 0.0, 1.679087477596414E9, 0.0, 2023-03-17 14:11:17.596
210.0, -3689.0436636261543, -10430.709771002505, 7418.61103994978, -7264.942796819544, -5692.721091833245, -8691.833459357436, -2755.1430767945144, -2965.830620030239, 1.006, -0.006, 0.20600000000000002, 192.0, 0.0, 0.0, 0.0, 0.0, 0.0, 0.0, 0.0, 0.0, 0.0, 1.67908747760444E9, 0.0, 2023-03-17 14:11:17.604
211.0, -3639.333383957551, -10378.63020642164, 7460.364098592294, -7229.71644755798, -5650.0069081791535, -8645.23007216812, -2707.064474471149, -2920.7471514638846, 1.006, -0.006, 0.20600000000000002, 192.0, 0.0, 0.0, 0.0, 0.0, 0.0, 0.0, 0.0, 0.0, 0.0, 1.679087477604463E9, 0.0, 2023-03-17 14:11:17.604
212.0, -3658.310015000107, -10391.571866461261, 7462.4428108266375, -7226.363685889684, -5650.610405279446, -8629.695609771683, -2714.865233286051, -2938.181512139024, 1.006, -0.006, 0.20600000000000002, 192.0, 0.0, 0.0, 0.0, 0.0, 0.0, 0.0, 0.0, 0.0, 0.0, 1.679087477612375E9, 0.0, 2023-03-17 14:11:17.612
213.0, -3703.4828905442823, -10442.600899052728, 7418.745150416512, -7268.5637794213035, -5695.939743034809, -8688.43599420023, -2781.2722660627683, -2972.7149573224733, 1.006, -0.006, 0.20600000000000002, 192.0, 0.0, 0.0, 0.0, 0.0, 0.0, 0.0, 0.0, 0.0, 0.0, 1.679087477612396E9, 0.0, 2023-03-17 14:11:17.612
214.0, -3694.2292683397854, -10434.889547215647, 7415.548850959403, -7275.58222718027, -5698.621952369446, -8701.779985640047, -2785.966132398383, -2957.3816606261325, 1.006, -0.006, 0.20600000000000002, 192.0, 0.0, 0.0, 0.0, 0.0, 0.0, 0.0, 0.0, 0.0, 0.0, 1.679087477619645E9, 0.0, 2023-03-17 14:11:17.619
215.0, -3639.3557357020068, -10382.050023323302, 7457.1007439018185, -7240.802912807812, -5649.090486656486, -8647.062915213457, -2713.8147012966515, -2909.86185191415, 1.006, -0.006, 0.20600000000000002, 192.0, 0.0, 0.0, 0.0, 0.0, 0.0, 0.0, 0.0, 0.0, 0.0, 1.679087477619662E9, 0.0, 2023-03-17 14:11:17.619
216.0, -3644.630747393459, -10382.988796590424, 7468.678947529668, -7223.837938766234, -5629.957393402743, -8616.664542754239, -2708.8973175164842, -2890.348779004667, 1.006, -0.006, 0.20600000000000002, 192.0, 0.0, 0.0, 0.0, 0.0, 0.0, 0.0, 0.0, 0.0, 0.0, 1.679087477626985E9, 0.0, 2023-03-17 14:11:17.626
217.0, -3690.429471782383, -10431.045047169335, 7434.838406424333, -7253.00696528041, -5668.044765954586, -8638.323383131432, -2737.976937052839, -2929.509035290365, 1.006, -0.006, 0.20600000000000002, 192.0, 0.0, 0.0, 0.0, 0.0, 0.0, 0.0, 0.0, 0.0, 0.0, 1.679087477626998E9, 0.0, 2023-03-17 14:11:17.626
218.0, -3695.011579395721, -10435.023657682379, 7425.003638863998, -7278.309140003817, -5689.614199353958, -8656.85297928488, -2736.5911288966095, -2956.1076111921802, 1.006, -0.006, 0.20600000000000002, 192.0, 0.0, 0.0, 0.0, 0.0, 0.0, 0.0, 0.0, 0.0, 0.0, 1.679087477634049E9, 0.0, 2023-03-17 14:11:17.634
219.0, -3633.7454478437244, -10368.616624905662, 7473.730441776567, -7252.29170945784, -5652.800876236067, -8615.971638676125, -2687.774919006219, -2921.2388898419013, 1.004, -0.006, 0.20800000000000002, 192.0, 31.0, 96.0, 255.0, 208.0, 6.0, 128.0, 0.0, 0.0, 0.0, 1.679087477642116E9, 0.0, 2023-03-17 14:11:17.642
220.0, -3641.4567996808055, -10370.896502840103, 7475.697395288635, -7243.686287842547, -5645.335393587994, -8615.614010764839, -2695.665084798942, -2909.1465960915802, 1.004, -0.006, 0.20800000000000002, 192.0, 0.0, 0.0, 0.0, 0.0, 0.0, 0.0, 0.0, 0.0, 0.0, 1.679087477642128E9, 0.0, 2023-03-17 14:11:17.642
221.0, -3690.697692715847, -10424.026599410368, 7436.224214580562, -7265.76981136439, -5683.355710906471, -8667.0453747565, -2750.315099992168, -2941.6683842740517, 1.004, -0.006, 0.20800000000000002, 192.0, 0.0, 0.0, 0.0, 0.0, 0.0, 0.0, 0.0, 0.0, 0.0, 1.679087477648722E9, 0.0, 2023-03-17 14:11:17.648
222.0, -3691.077672371587, -10428.407541323608, 7427.194109820618, -7273.749384134935, -5695.425652912338, -8679.919979562757, -2775.058481104193, -2965.607102585686, 1.004, -0.006, 0.20800000000000002, 192.0, 0.0, 0.0, 0.0, 0.0, 0.0, 0.0, 0.0, 0.0, 0.0, 1.679087477648734E9, 0.0, 2023-03-17 14:11:17.648
223.0, -3636.137084500442, -10372.975215074446, 7462.554569548914, -7241.786389563846, -5653.694946014279, -8628.46626382664, -2722.040143256205, -2935.365192337655, 1.004, -0.006, 0.20800000000000002, 192.0, 0.0, 0.0, 0.0, 0.0, 0.0, 0.0, 0.0, 0.0, 0.0, 1.679087477656655E9, 0.0, 2023-03-17 14:11:17.656
224.0, -3624.8718052949675, -10357.887787567113, 7475.496229588536, -7222.362723632184, -5631.6337742368905, -8607.679141483206, -2685.3385788605906, -2904.6538954560633, 1.004, -0.006, 0.20800000000000002, 192.0, 0.0, 0.0, 0.0, 0.0, 0.0, 0.0, 0.0, 0.0, 0.0, 1.679087477656672E9, 0.0, 2023-03-17 14:11:17.656
225.0, -3677.756032676224, -10408.82741318076, 7443.399124550716, -7257.924349060578, -5675.644359069391, -8653.813142038958, -2732.8807393170287, -2946.116381420658, 1.004, -0.006, 0.20800000000000002, 192.0, 0.0, 0.0, 0.0, 0.0, 0.0, 0.0, 0.0, 0.0, 0.0, 1.67908747766465E9, 0.0, 2023-03-17 14:11:17.664
226.0, -3691.0329688826764, -10426.529994789362, 7429.317525543872, -7282.175991794586, -5704.4781094167365, -8676.47781091664, -2759.6804809189416, -2961.1367536946245, 1.004, -0.006, 0.20800000000000002, 192.0, 0.0, 0.0, 0.0, 0.0, 0.0, 0.0, 0.0, 0.0, 0.0, 1.679087477664668E9, 0.0, 2023-03-17 14:11:17.664
227.0, -3663.048584824632, -10398.72442468696, 7443.71204897309, -7272.274169000884, -5686.306141174572, -8667.224188712144, -2775.639626460031, -2926.7374189779066, 1.004, -0.006, 0.20800000000000002, 192.0, 0.0, 0.0, 0.0, 0.0, 0.0, 0.0, 0.0, 0.0, 0.0, 1.679087477671884E9, 0.0, 2023-03-17 14:11:17.671
228.0, -3646.888273583445, -10379.568979688762, 7462.643976526735, -7256.739706604446, -5665.183742664307, -8642.838435511403, -2725.929346791428, -2916.500320017376, 1.004, -0.006, 0.20800000000000002, 192.0, 0.0, 0.0, 0.0, 0.0, 0.0, 0.0, 0.0, 0.0, 0.0, 1.679087477671895E9, 0.0, 2023-03-17 14:11:17.671
229.0, -3664.3226342585845, -10393.96350311798, 7460.319395103383, -7246.569662877281, -5667.530675832114, -8644.447761112186, -2705.701018059375, -2928.6373172566077, 1.006, -0.004, 0.20600000000000002, 192.0, 31.0, 112.0, 255.0, 224.0, 6.0, 112.0, 0.0, 0.0, 0.0, 1.679087477679318E9, 0.0, 2023-03-17 14:11:17.679
230.0, -3693.11168111702, -10428.116968645689, 7424.891880141721, -7271.514209689404, -5703.3605221939715, -8691.520534935062, -2759.16639079647, -2963.0366519733257, 1.006, -0.004, 0.20600000000000002, 192.0, 0.0, 0.0, 0.0, 0.0, 0.0, 0.0, 0.0, 0.0, 0.0, 1.679087477679331E9, 0.0, 2023-03-17 14:11:17.679
231.0, -3661.7074801573135, -10396.779822919349, 7445.500188529514, -7251.8893780576445, -5682.88632427291, -8665.592511366905, -2738.289861475213, -2950.4526198449876, 1.006, -0.004, 0.20600000000000002, 192.0, 0.0, 0.0, 0.0, 0.0, 0.0, 0.0, 0.0, 0.0, 0.0, 1.679087477687352E9, 0.0, 2023-03-17 14:11:17.687
232.0, -3617.3616191579845, -10353.1939212315, 7483.095822703341, -7205.978894946444, -5634.584204504991, -8620.151414889266, -2696.626209810521, -2902.0387413547924, 1.006, -0.004, 0.20600000000000002, 192.0, 0.0, 0.0, 0.0, 0.0, 0.0, 0.0, 0.0, 0.0, 0.0, 1.679087477687363E9, 0.0, 2023-03-17 14:11:17.687
233.0, -3636.6735263673695, -10368.326052227743, 7481.19592442464, -7205.196583890508, -5637.02054465062, -8621.42546432322, -2706.6174395820426, -2893.254505783857, 1.006, -0.004, 0.20600000000000002, 192.0, 0.0, 0.0, 0.0, 0.0, 0.0, 0.0, 0.0, 0.0, 0.0, 1.679087477694328E9, 0.0, 2023-03-17 14:11:17.694
234.0, -3686.2273438247853, -10423.02077090988, 7426.389447020227, -7249.7212588454795, -5690.17299296534, -8683.33979646442, -2771.1469258245143, -2950.117343678158, 1.006, -0.004, 0.20600000000000002, 192.0, 0.0, 0.0, 0.0, 0.0, 0.0, 0.0, 0.0, 0.0, 0.0, 1.679087477701632E9, 0.0, 2023-03-17 14:11:17.701
235.0, -3672.235151795763, -10409.386206792142, 7428.8034354214, -7248.648375111625, -5689.167164464851, -8672.968587037158, -2757.802934384696, -2949.022108199848, 1.006, -0.004, 0.20600000000000002, 192.0, 0.0, 0.0, 0.0, 0.0, 0.0, 0.0, 0.0, 0.0, 0.0, 1.679087477701695E9, 0.0, 2023-03-17 14:11:17.701
236.0, -3636.6735263673695, -10372.1482005296, 7459.559435791903, -7235.14792146062, -5665.496667086682, -8647.979336736124, -2738.356916708579, -2926.7150672334515, 1.006, -0.004, 0.20600000000000002, 192.0, 0.0, 0.0, 0.0, 0.0, 0.0, 0.0, 0.0, 0.0, 0.0, 1.679087477708922E9, 0.0, 2023-03-17 14:11:17.708
237.0, -3645.1671892603863, -10377.356156987687, 7468.187209151651, -7215.970124717966, -5651.102143657464, -8634.098903429378, -2752.706736648886, -2928.793779467795, 1.006, -0.004, 0.20600000000000002, 192.0, 0.0, 0.0, 0.0, 0.0, 0.0, 0.0, 0.0, 0.0, 0.0, 1.67908747770894E9, 0.0, 2023-03-17 14:11:17.708
238.0, -3676.72785243128, -10414.482404527951, 7437.9676506480755, -7240.24411919643, -5686.328492919028, -8664.43022065523, -2784.1779928419583, -2948.396259355099, 1.006, -0.004, 0.20600000000000002, 192.0, 0.0, 0.0, 0.0, 0.0, 0.0, 0.0, 0.0, 0.0, 0.0, 1.679087477716967E9, 0.0, 2023-03-17 14:11:17.716
239.0, -3686.0708816135984, -10428.340486090241, 7414.163042803174, -7261.992366551443, -5709.551955408091, -8690.604113412395, -2755.903036105995, -2968.4457741315096, 1.012, -0.004, 0.20400000000000001, 192.0, 31.0, 160.0, 255.0, 224.0, 6.0, 96.0, 0.0, 0.0, 0.0, 1.67908747771698E9, 0.0, 2023-03-17 14:11:17.716
240.0, -3627.665773351881, -10371.075316795745, 7457.167799135184, -7214.42785435055, -5654.901940214866, -8649.23103442562, -2695.8662504990402, -2937.086276660714, 1.012, -0.004, 0.20400000000000001, 192.0, 0.0, 0.0, 0.0, 0.0, 0.0, 0.0, 0.0, 0.0, 0.0, 1.679087477724963E9, 0.0, 2023-03-17 14:11:17.724
241.0, -3618.769779058669, -10355.742020099404, 7480.659482557712, -7183.716557468958, -5628.772750946611, -8616.977467176614, -2681.963465447839, -2910.510052503354, 1.012, -0.004, 0.20400000000000001, 192.0, 0.0, 0.0, 0.0, 0.0, 0.0, 0.0, 0.0, 0.0, 0.0, 1.679087477724975E9, 0.0, 2023-03-17 14:11:17.724
242.0, -3662.8697708689897, -10402.524221244363, 7445.880168185255, -7212.28208688284, -5669.36351887745, -8647.264080913554, -2731.2937654607017, -2937.86858771665, 1.012, -0.004, 0.20400000000000001, 192.0, 0.0, 0.0, 0.0, 0.0, 0.0, 0.0, 0.0, 0.0, 0.0, 1.679087477731564E9, 0.0, 2023-03-17 14:11:17.731
243.0, -3679.857096655023, -10422.886660443148, 7418.298115527406, -7235.52790111636, -5692.184649966318, -8685.95495056569, -2769.157620567992, -2973.720785822962, 1.012, -0.004, 0.20400000000000001, 192.0, 0.0, 0.0, 0.0, 0.0, 0.0, 0.0, 0.0, 0.0, 0.0, 1.679087477731575E9, 0.0, 2023-03-17 14:11:17.731
244.0, -3626.2576134511964, -10368.169590016556, 7459.470028814081, -7198.960447187477, -5648.4199343228265, -8644.961851234657, -2720.2743554442354, -2941.310756362767, 1.012, -0.004, 0.20400000000000001, 192.0, 0.0, 0.0, 0.0, 0.0, 0.0, 0.0, 0.0, 0.0, 0.0, 1.679087477739519E9, 0.0, 2023-03-17 14:11:17.739
245.0, -3623.083665738543, -10360.122962012645, 7472.210523153606, -7183.694205724502, -5631.656125981346, -8622.990086435091, -2709.4561111278667, -2919.629564241119, 1.012, -0.004, 0.20400000000000001, 192.0, 0.0, 0.0, 0.0, 0.0, 0.0, 0.0, 0.0, 0.0, 0.0, 1.679087477739531E9, 0.0, 2023-03-17 14:11:17.739
246.0, -3669.1953145498414, -10408.179212591554, 7439.800493693411, -7214.450206095005, -5668.849428754977, -8658.484656630118, -2786.50257426531, -2947.8374657437166, 1.012, -0.004, 0.20400000000000001, 192.0, 0.0, 0.0, 0.0, 0.0, 0.0, 0.0, 0.0, 0.0, 0.0, 1.679087477747622E9, 0.0, 2023-03-17 14:11:17.747
247.0, -3677.6889774428582, -10423.557212776806, 7421.583821962336, -7229.962316746988, -5688.854240042477, -8686.737261621627, -2780.4228997734667, -2959.1921519270127, 1.012, -0.004, 0.20400000000000001, 192.0, 0.0, 0.0, 0.0, 0.0, 0.0, 0.0, 0.0, 0.0, 0.0, 1.679087477747641E9, 0.0, 2023-03-17 14:11:17.747
248.0, -3630.593851875526, -10379.390165733119, 7448.85295019781, -7203.341389100718, -5654.678422770313, -8651.533264104517, -2729.6173846265538, -2931.5653957802533, 1.012, -0.004, 0.20400000000000001, 192.0, 0.0, 0.0, 0.0, 0.0, 0.0, 0.0, 0.0, 0.0, 0.0, 1.679087477754891E9, 0.0, 2023-03-17 14:11:17.754
249.0, -3599.56963057156, -10344.879072294125, 7490.784822795967, -7171.400746274084, -5617.127492085397, -8605.17574610421, -2699.3084191451576, -2903.737473933396, 1.008, -0.004, 0.20600000000000002, 192.0, 31.0, 128.0, 255.0, 224.0, 6.0, 112.0, 0.0, 0.0, 0.0, 1.679087477754909E9, 0.0, 2023-03-17 14:11:17.754
250.0, -3644.988375304744, -10388.91200887108, 7462.4428108266375, -7192.925476184545, -5649.693983756779, -8644.648926812282, -2710.193718694892, -2915.740360705896, 1.008, -0.004, 0.20600000000000002, 192.0, 0.0, 0.0, 0.0, 0.0, 0.0, 0.0, 0.0, 0.0, 0.0, 1.679087477761844E9, 0.0, 2023-03-17 14:11:17.761
251.0, -3660.7016516568247, -10412.157823104599, 7435.598365735814, -7213.757302016891, -5676.158449191863, -8672.074517258945, -2746.9623383238722, -2940.953128451482, 1.008, -0.004, 0.20600000000000002, 192.0, 0.0, 0.0, 0.0, 0.0, 0.0, 0.0, 0.0, 0.0, 0.0, 1.679087477769245E9, 0.0, 2023-03-17 14:11:17.769
252.0, -3617.249860435708, -10371.120020284656, 7462.107534659807, -7188.991569160411, -5644.754248232156, -8646.012383224057, -2720.408465910967, -2920.009543896859, 1.008, -0.004, 0.20600000000000002, 192.0, 0.0, 0.0, 0.0, 0.0, 0.0, 0.0, 0.0, 0.0, 0.0, 1.679087477769262E9, 0.0, 2023-03-17 14:11:17.769
253.0, -3596.015703203166, -10347.494226395396, 7482.2241046695835, -7172.9430166415, -5620.659067709335, -8626.61106903685, -2699.196660422881, -2894.0368168397927, 1.008, -0.004, 0.20600000000000002, 192.0, 0.0, 0.0, 0.0, 0.0, 0.0, 0.0, 0.0, 0.0, 0.0, 1.679087477777308E9, 0.0, 2023-03-17 14:11:17.777
254.0, -3640.0039362912103, -10387.637959437128, 7459.358270091805, -7191.494964539405, -5643.681364498301, -8645.028906468024, -2734.7582858512746, -2927.4526748004764, 1.008, -0.004, 0.20600000000000002, 192.0, 0.0, 0.0, 0.0, 0.0, 0.0, 0.0, 0.0, 0.0, 0.0, 1.679087477777323E9, 0.0, 2023-03-17 14:11:17.777
255.0, -3662.5791981910706, -10418.371608063175, 7433.318487801372, -7212.773825260857, -5669.922312488832, -8682.33396796393, -2798.4384058044443, -2978.63816960313, 1.008, -0.004, 0.20600000000000002, 192.0, 0.0, 0.0, 0.0, 0.0, 0.0, 0.0, 0.0, 0.0, 0.0, 1.679087477783931E9, 0.0, 2023-03-17 14:11:17.783
0.0, -3628.7833605746464, -10388.219104792966, 7450.708144987601, -7194.557153529782, -5644.329565087505, -8674.644967871305, -2763.9496641099054, -2935.2087301264683, 1.008, -0.004, 0.20600000000000002, 192.0, 0.0, 0.0, 0.0, 0.0, 0.0, 0.0, 0.0, 0.0, 0.0, 1.679087477783941E9, 0.0, 2023-03-17 14:11:17.783
1.0, -3587.7232060102474, -10345.884900794614, 7485.15218319323, -7165.410478760062, -5606.532765213581, -8617.648019510272, -2692.9158202309395, -2901.3234855322225, 1.008, -0.004, 0.20600000000000002, 192.0, 0.0, 0.0, 0.0, 0.0, 0.0, 0.0, 0.0, 0.0, 0.0, 1.679087477791786E9, 0.0, 2023-03-17 14:11:17.791
2.0, -3602.1400811839203, -10353.797418331793, 7492.170630952196, -7153.541702454294, -5601.1683465443075, -8595.855068666348, -2698.704922044864, -2901.3905407655884, 1.008, -0.004, 0.20600000000000002, 192.0, 0.0, 0.0, 0.0, 0.0, 0.0, 0.0, 0.0, 0.0, 0.0, 1.67908747779181E9, 0.0, 2023-03-17 14:11:17.791
3.0, -3645.7706863606795, -10399.350273531709, 7451.132828132252, -7192.411386062073, -5648.68815525629, -8636.781112764014, -2756.283015761735, -2924.591651510197, 1.008, -0.004, 0.20600000000000002, 192.0, 31.0, 128.0, 255.0, 224.0, 6.0, 112.0, 0.0, 0.0, 0.0, 1.67908747779996E9, 0.0, 2023-03-17 14:11:17.799
4.0, -3636.6511746229144, -10391.750680416904, 7446.528368774459, -7198.960447187477, -5651.392716335383, -8642.860787255859, -2735.674707373942, -2914.3545525496666, 1.008, -0.004, 0.20600000000000002, 192.0, 0.0, 0.0, 0.0, 0.0, 0.0, 0.0, 0.0, 0.0, 0.0, 1.679087477799981E9, 0.0, 2023-03-17 14:11:17.799
5.0, -3594.8534124914904, -10347.404819417576, 7477.977273223076, -7175.267598064852, -5617.798044419056, -8603.208792592144, -2679.4600700688447, -2890.728758660407, 1.008, -0.004, 0.20600000000000002, 192.0, 0.0, 0.0, 0.0, 0.0, 0.0, 0.0, 0.0, 0.0, 0.0, 1.679087477807069E9, 0.0, 2023-03-17 14:11:17.807
6.0, -3604.3529038849956, -10352.009278775367, 7484.682796559668, -7160.157818813064, -5602.822375634, -8607.343865316376, -2689.875982985018, -2885.0514155687592, 1.008, -0.004, 0.20600000000000002, 192.0, 0.0, 0.0, 0.0, 0.0, 0.0, 0.0, 0.0, 0.0, 0.0, 1.679087477807095E9, 0.0, 2023-03-17 14:11:17.807
7.0, -3642.082648525554, -10394.857572896191, 7451.266938598984, -7184.878848180634, -5635.075942883008, -8645.386534379308, -2728.0080590257717, -2921.440055541999, 1.008, -0.004, 0.20600000000000002, 192.0, 0.0, 0.0, 0.0, 0.0, 0.0, 0.0, 0.0, 0.0, 0.0, 1.679087477814658E9, 0.0, 2023-03-17 14:11:17.814
8.0, -3629.588023375037, -10386.252151280898, 7453.591520022335, -7183.425984791039, -5634.9194806718215, -8639.66448779875, -2722.6212886120425, -2934.8511022151833, 1.008, -0.004, 0.20600000000000002, 192.0, 0.0, 0.0, 0.0, 0.0, 0.0, 0.0, 0.0, 0.0, 0.0, 1.679087477814674E9, 0.0, 2023-03-17 14:11:17.814
9.0, -3592.417072345862, -10351.226967719433, 7478.491363345548, -7158.190865300998, -5605.191660546263, -8608.237935094588, -2706.5503843486767, -2918.5790322517196, 1.008, -0.004, 0.20600000000000002, 192.0, 0.0, 0.0, 0.0, 0.0, 0.0, 0.0, 0.0, 0.0, 0.0, 1.679087477821538E9, 0.0, 2023-03-17 14:11:17.821
10.0, -3599.659037549381, -10351.741057841904, 7485.330997148872, -7147.730248895914, -5596.697997653246, -8607.455624038652, -2723.4930066457996, -2895.377921507111, 1.008, -0.004, 0.20600000000000002, 192.0, 0.0, 0.0, 0.0, 0.0, 0.0, 0.0, 0.0, 0.0, 0.0, 1.679087477829462E9, 0.0, 2023-03-17 14:11:17.829
11.0, -3645.8377415940454, -10396.891581641625, 7450.708144987601, -7196.077072152743, -5640.194492363274, -8648.314612902954, -2734.5347684067215, -2927.3856195671106, 1.008, -0.004, 0.20600000000000002, 192.0, 0.0, 0.0, 0.0, 0.0, 0.0, 0.0, 0.0, 0.0, 0.0, 1.679087477829479E9, 0.0, 2023-03-17 14:11:17.829
12.0, -3655.560750432104, -10409.788538192337, 7436.783008191945, -7220.1946044200195, -5664.893169986388, -8664.05024099949, -2753.869027360562, -2961.427326372543, 1.008, -0.004, 0.20600000000000002, 192.0, 0.0, 0.0, 0.0, 0.0, 0.0, 0.0, 0.0, 0.0, 0.0, 1.679087477837589E9, 0.0, 2023-03-17 14:11:17.837
13.0, -3611.0360754771327, -10366.359098715675, 7467.7848777514555, -7193.931304685034, -5633.3325068154945, -8628.689781271194, -2715.6922478308975, -2930.783084724317, 1.008, -0.004, 0.214, 192.0, 31.0, 128.0, 255.0, 224.0, 6.0, 176.0, 0.0, 0.0, 0.0, 1.679087477837604E9, 0.0, 2023-03-17 14:11:17.837
14.0, -3588.572572299549, -10339.067618735746, 7499.703168833634, -7162.2588827918635, -5595.245134263651, -8599.498403012563, -2678.6554072684535, -2913.572241493731, 1.008, -0.004, 0.214, 192.0, 0.0, 0.0, 0.0, 0.0, 0.0, 0.0, 0.0, 0.0, 0.0, 1.67908747784419E9, 0.0, 2023-03-17 14:11:17.844
15.0, -3635.399476933417, -10386.00628209189, 7466.220255639584, -7185.929380170033, -5626.2917073120725, -8636.401133108275, -2740.3909254540117, -2936.1922068825015, 1.008, -0.004, 0.214, 192.0, 0.0, 0.0, 0.0, 0.0, 0.0, 0.0, 0.0, 0.0, 0.0, 1.679087477844211E9, 0.0, 2023-03-17 14:11:17.844
16.0, -3642.1497037589197, -10398.456203753496, 7448.517674030981, -7200.323903599251, -5639.389829562882, -8654.640156583806, -2756.64064367302, -2891.3322557607003, 1.008, -0.004, 0.214, 192.0, 0.0, 0.0, 0.0, 0.0, 0.0, 0.0, 0.0, 0.0, 0.0, 1.679087477852278E9, 0.0, 2023-03-17 14:11:17.852
17.0, -3611.1254824549537, -10368.393107461108, 7465.482648072559, -7185.370586558651, -5618.312134541528, -8638.926880231724, -2749.063402302671, -2901.345837276678, 1.008, -0.004, 0.214, 192.0, 0.0, 0.0, 0.0, 0.0, 0.0, 0.0, 0.0, 0.0, 0.0, 1.679087477852305E9, 0.0, 2023-03-17 14:11:17.852
18.0, -3583.699892008292, -10337.99473500189, 7491.991816996553, -7152.982908842911, -5582.526991668581, -8615.055217153456, -2697.1850034219033, -2871.528610173298, 1.008, -0.004, 0.214, 192.0, 0.0, 0.0, 0.0, 0.0, 0.0, 0.0, 0.0, 0.0, 0.0, 1.67908747786011E9, 0.0, 2023-03-17 14:11:17.860
19.0, -3635.824160078068, -10383.659348924082, 7461.0346509259525, -7185.728214469936, -5619.764997931123, -8648.672240814238, -2712.4735966293333, -2891.2204970384237, 1.008, -0.004, 0.214, 192.0, 0.0, 0.0, 0.0, 0.0, 0.0, 0.0, 0.0, 0.0, 0.0, 1.67908747786013E9, 0.0, 2023-03-17 14:11:17.860
20.0, -3667.63069243797, -10417.209317351499, 7432.714990701079, -7226.855424267701, -5667.329510132016, -8671.560427136472, -2782.1439840965254, -2943.858855230672, 1.008, -0.004, 0.214, 192.0, 0.0, 0.0, 0.0, 0.0, 0.0, 0.0, 0.0, 0.0, 0.0, 1.679087477866715E9, 0.0, 2023-03-17 14:11:17.866
21.0, -3636.2041397338085, -10386.989758847923, 7449.724668231567, -7210.963333959978, -5649.671632012324, -8648.180502436222, -2726.3316781916237, -2936.728648749429, 1.008, -0.004, 0.214, 192.0, 0.0, 0.0, 0.0, 0.0, 0.0, 0.0, 0.0, 0.0, 0.0, 1.679087477866734E9, 0.0, 2023-03-17 14:11:17.866
22.0, -3590.0701391780544, -10342.196862959488, 7487.543819849947, -7165.030499104321, -5599.268448265606, -8604.32637981491, -2699.934267989906, -2891.1310900606027, 1.008, -0.004, 0.214, 192.0, 0.0, 0.0, 0.0, 0.0, 0.0, 0.0, 0.0, 0.0, 0.0, 1.679087477874753E9, 0.0, 2023-03-17 14:11:17.874
23.0, -3619.9991250037106, -10365.934415571024, 7480.14539243524, -7176.4075370320725, -5615.1381868288745, -8617.983295677102, -2708.651448327476, -2908.118415846636, 1.004, -0.004, 0.212, 192.0, 31.0, 96.0, 255.0, 224.0, 6.0, 160.0, 0.0, 0.0, 0.0, 1.679087477874772E9, 0.0, 2023-03-17 14:11:17.874
24.0, -3661.461610968305, -10412.604857993705, 7438.749961704012, -7221.043970709321, -5666.994233965187, -8673.415621926264, -2759.8816466190397, -2974.078413734247, 1.004, -0.004, 0.212, 192.0, 0.0, 0.0, 0.0, 0.0, 0.0, 0.0, 0.0, 0.0, 0.0, 1.679087477881834E9, 0.0, 2023-03-17 14:11:17.881
25.0, -3638.104038012509, -10391.77303216136, 7450.641089754235, -7214.338447372729, -5655.684251270802, -8651.041525726501, -2746.3364894791234, -2973.094936978214, 1.004, -0.004, 0.212, 192.0, 0.0, 0.0, 0.0, 0.0, 0.0, 0.0, 0.0, 0.0, 0.0, 1.679087477888992E9, 0.0, 2023-03-17 14:11:17.888
26.0, -3601.3577701279846, -10355.071467765745, 7478.401956367727, -7187.158726115075, -5620.457902009238, -8624.241784124588, -2741.3073469766796, -2944.8423319867056, 1.004, -0.004, 0.212, 192.0, 0.0, 0.0, 0.0, 0.0, 0.0, 0.0, 0.0, 0.0, 0.0, 1.679087477889036E9, 0.0, 2023-03-17 14:11:17.889
27.0, -3629.632726863948, -10376.77501163185, 7469.595369052336, -7191.070281394754, -5621.4190270208155, -8626.476958570118, -2786.189649842936, -2901.435244254499, 1.004, -0.004, 0.212, 192.0, 0.0, 0.0, 0.0, 0.0, 0.0, 0.0, 0.0, 0.0, 0.0, 1.679087477896402E9, 0.0, 2023-03-17 14:11:17.896
28.0, -3682.025215867188, -10432.1626343921, 7420.510938228481, -7237.874834284167, -5674.750289291178, -8680.121145262856, -2779.640588717531, -2939.7014307619847, 1.004, -0.004, 0.212, 192.0, 0.0, 0.0, 0.0, 0.0, 0.0, 0.0, 0.0, 0.0, 0.0, 1.679087477896424E9, 0.0, 2023-03-17 14:11:17.896
29.0, -3650.308090485107, -10404.53587824534, 7437.4982640145145, -7219.881679997645, -5655.818361737533, -8668.38647942382, -2722.06249500066, -2924.7704654658396, 1.004, -0.004, 0.212, 192.0, 0.0, 0.0, 0.0, 0.0, 0.0, 0.0, 0.0, 0.0, 0.0, 1.679087477904419E9, 0.0, 2023-03-17 14:11:17.904
30.0, -3595.076929936043, -10352.52336889784, 7477.731404034067, -7182.487211523916, -5608.566773959014, -8617.156281132255, -2687.3725876060234, -2886.6383894250857, 1.004, -0.004, 0.212, 192.0, 0.0, 0.0, 0.0, 0.0, 0.0, 0.0, 0.0, 0.0, 0.0, 1.679087477904438E9, 0.0, 2023-03-17 14:11:17.904
31.0, -3611.7736830441577, -10364.258034736877, 7480.257151157517, -7180.095574867199, -5607.136262313875, -8613.714112486137, -2704.471672114333, -2891.8016423942618, 1.004, -0.004, 0.212, 192.0, 0.0, 0.0, 0.0, 0.0, 0.0, 0.0, 0.0, 0.0, 0.0, 1.679087477912381E9, 0.0, 2023-03-17 14:11:17.912
32.0, -3654.890198098445, -10408.447433525018, 7444.203787351106, -7213.71259852798, -5652.733821002701, -8655.914206017758, -2759.0099285852825, -2937.1980353829904, 1.004, -0.004, 0.212, 192.0, 0.0, 0.0, 0.0, 0.0, 0.0, 0.0, 0.0, 0.0, 0.0, 1.679087477912394E9, 0.0, 2023-03-17 14:11:17.912
33.0, -3646.1059625275093, -10402.703035200006, 7438.481740770548, -7218.8534997527, -5660.400469350871, -8663.826723554936, -2758.3617279960786, -2948.06098318827, 1.006, -0.004, 0.212, 192.0, 31.0, 112.0, 255.0, 224.0, 6.0, 160.0, 0.0, 0.0, 0.0, 1.679087477919E9, 0.0, 2023-03-17 14:11:17.919
34.0, -3599.010836960177, -10353.909177054069, 7474.356290621316, -7189.416252305062, -5623.900070655354, -8627.952173704169, -2711.803044295674, -2919.1601776075577, 1.006, -0.004, 0.212, 192.0, 0.0, 0.0, 0.0, 0.0, 0.0, 0.0, 0.0, 0.0, 0.0, 1.679087477919014E9, 0.0, 2023-03-17 14:11:17.919
35.0, -3611.2372411772303, -10357.95484280048, 7480.011281968508, -7182.956598157478, -5617.976858374698, -8616.396321820775, -2714.7534745637745, -2910.912383903549, 1.006, -0.004, 0.212, 192.0, 0.0, 0.0, 0.0, 0.0, 0.0, 0.0, 0.0, 0.0, 0.0, 1.67908747792752E9, 0.0, 2023-03-17 14:11:17.927
36.0, -3653.303224242118, -10403.284180555842, 7446.215444352084, -7209.130490914642, -5654.320794859028, -8657.702345574182, -2756.7300506508413, -2943.2553581303787, 1.006, -0.004, 0.212, 192.0, 0.0, 0.0, 0.0, 0.0, 0.0, 0.0, 0.0, 0.0, 0.0, 1.679087477927534E9, 0.0, 2023-03-17 14:11:17.927
37.0, -3656.208951021308, -10413.923610916569, 7427.976420876554, -7222.161557932086, -5667.664786298846, -8677.036604528023, -2780.1546788400033, -2962.3884513841217, 1.006, -0.004, 0.212, 192.0, 0.0, 0.0, 0.0, 0.0, 0.0, 0.0, 0.0, 0.0, 0.0, 1.679087477935E9, 0.0, 2023-03-17 14:11:17.935
38.0, -3608.3538661424955, -10368.124886527645, 7461.369927092783, -7189.796231960801, -5628.079846868497, -8639.396266865286, -2740.3015184761907, -2935.566358037753, 1.006, -0.004, 0.212, 192.0, 0.0, 0.0, 0.0, 0.0, 0.0, 0.0, 0.0, 0.0, 0.0, 1.679087477935013E9, 0.0, 2023-03-17 14:11:17.935
39.0, -3605.9398777413226, -10358.111305011667, 7477.016148211497, -7180.56496150076, -5616.166367073818, -8628.868595226837, -2713.837053041107, -2925.4186660550436, 1.006, -0.004, 0.212, 192.0, 0.0, 0.0, 0.0, 0.0, 0.0, 0.0, 0.0, 0.0, 0.0, 1.6790874779421E9, 0.0, 2023-03-17 14:11:17.942
40.0, -3654.979605076266, -10403.77591893386, 7446.953051919109, -7208.929325214544, -5653.2926146140835, -8648.627537325328, -2760.7533646527963, -2949.893826233605, 1.006, -0.004, 0.212, 192.0, 0.0, 0.0, 0.0, 0.0, 0.0, 0.0, 0.0, 0.0, 0.0, 1.679087477948673E9, 0.0, 2023-03-17 14:11:17.948
41.0, -3664.3002825141293, -10420.20445110851, 7427.015295864975, -7223.726180043957, -5674.0126817241535, -8669.28054920203, -2791.419958045478, -2956.733460036929, 1.006, -0.004, 0.212, 192.0, 0.0, 0.0, 0.0, 0.0, 0.0, 0.0, 0.0, 0.0, 0.0, 1.679087477948689E9, 0.0, 2023-03-17 14:11:17.948
42.0, -3630.012706519688, -10385.67100592506, 7453.010374666497, -7210.717464770969, -5653.337318102994, -8649.812179781458, -2728.6786113594308, -2948.9103494775713, 1.006, -0.004, 0.212, 192.0, 0.0, 0.0, 0.0, 0.0, 0.0, 0.0, 0.0, 0.0, 0.0, 1.679087477956698E9, 0.0, 2023-03-17 14:11:17.956
43.0, -3603.57059282906, -10351.584595630717, 7490.896581518243, -7186.287008081318, -5620.502605498148, -8612.663580496739, -2706.77390179323, -2923.407009054066, 1.008, -0.002, 0.20600000000000002, 192.0, 31.0, 128.0, 255.0, 240.0, 6.0, 112.0, 0.0, 0.0, 0.0, 1.679087477956712E9, 0.0, 2023-03-17 14:11:17.956
44.0, -3648.3858404619505, -10393.382357762142, 7462.196941637629, -7206.738854257925, -5649.090486656486, -8645.028906468024, -2746.738820879319, -2922.8482154426833, 1.008, -0.002, 0.20600000000000002, 192.0, 0.0, 0.0, 0.0, 0.0, 0.0, 0.0, 0.0, 0.0, 0.0, 1.679087477964686E9, 0.0, 2023-03-17 14:11:17.964
45.0, -3672.928055873878, -10421.791424964837, 7433.072618612364, -7234.075037726765, -5680.517039360648, -8683.786831353525, -2771.2363328023357, -2959.8403525162166, 1.008, -0.002, 0.20600000000000002, 192.0, 0.0, 0.0, 0.0, 0.0, 0.0, 0.0, 0.0, 0.0, 0.0, 1.679087477964697E9, 0.0, 2023-03-17 14:11:17.964
46.0, -3631.9349565428447, -10380.016014577868, 7464.029784682964, -7212.3267903717515, -5651.2362541241955, -8651.466208871152, -2740.97207080985, -2946.026974442837, 1.008, -0.002, 0.20600000000000002, 192.0, 0.0, 0.0, 0.0, 0.0, 0.0, 0.0, 0.0, 0.0, 0.0, 1.679087477971811E9, 0.0, 2023-03-17 14:11:17.971
47.0, -3596.8874212369233, -10341.90629028157, 7497.870325788299, -7183.716557468958, -5611.114872826919, -8617.044522409979, -2702.6835325579086, -2892.963933105938, 1.008, -0.002, 0.20600000000000002, 192.0, 0.0, 0.0, 0.0, 0.0, 0.0, 0.0, 0.0, 0.0, 0.0, 1.679087477971831E9, 0.0, 2023-03-17 14:11:17.971
48.0, -3632.2925844541296, -10372.818752863259, 7482.715843047601, -7190.131508127632, -5625.1741200893075, -8625.046446924978, -2726.3763816805345, -2897.1437093190802, 1.008, -0.002, 0.20600000000000002, 192.0, 0.0, 0.0, 0.0, 0.0, 0.0, 0.0, 0.0, 0.0, 0.0, 1.679087477979229E9, 0.0, 2023-03-17 14:11:17.979
49.0, -3674.4479744968385, -10417.34342781823, 7436.514787258481, -7234.81264529379, -5675.1302689469185, -8677.394232439308, -2787.5978097436205, -2948.5750733107416, 1.008, -0.002, 0.20600000000000002, 192.0, 0.0, 0.0, 0.0, 0.0, 0.0, 0.0, 0.0, 0.0, 0.0, 1.679087477979241E9, 0.0, 2023-03-17 14:11:17.979
50.0, -3650.15162827392, -10392.264770539376, 7445.723705974067, -7226.274278911863, -5664.468486841737, -8669.213493968666, -2762.8767803760506, -2944.9317389645266, 1.008, -0.002, 0.20600000000000002, 192.0, 0.0, 0.0, 0.0, 0.0, 0.0, 0.0, 0.0, 0.0, 0.0, 1.679087477987349E9, 0.0, 2023-03-17 14:11:17.987
51.0, -3611.7513312997025, -10352.568072386752, 7477.932569734165, -7199.273371609852, -5630.695000969768, -8630.254403383065, -2725.705829346875, -2926.9832881669154, 1.008, -0.002, 0.20600000000000002, 192.0, 0.0, 0.0, 0.0, 0.0, 0.0, 0.0, 0.0, 0.0, 0.0, 1.679087477987364E9, 0.0, 2023-03-17 14:11:17.987
52.0, -3643.9378433153447, -10376.327976742743, 7467.918988218187, -7208.147014158609, -5643.860178453944, -8637.719886031138, -2743.0507830441934, -2943.4565238304763, 1.008, -0.002, 0.20600000000000002, 192.0, 0.0, 0.0, 0.0, 0.0, 0.0, 0.0, 0.0, 0.0, 0.0, 1.67908747799529E9, 0.0, 2023-03-17 14:11:17.995
53.0, -3689.624808981992, -10426.01590466689, 7422.857871396288, -7251.867026313189, -5696.3197226905495, -8683.29509297551, -2787.351940554612, -2968.266960175867, 1.008, -0.002, 0.20600000000000002, 192.0, 0.0, 0.0, 0.0, 0.0, 0.0, 0.0, 0.0, 0.0, 0.0, 1.679087477995304E9, 0.0, 2023-03-17 14:11:17.995
54.0, -3658.622939422481, -10398.00916886439, 7439.800493693411, -7231.616345836681, -5676.717242803245, -8655.154246706277, -2776.2431235603244, -2959.01333797137, 1.006, -0.006, 0.212, 192.0, 31.0, 112.0, 255.0, 208.0, 6.0, 160.0, 0.0, 0.0, 0.0, 1.6790874780016E9, 0.0, 2023-03-17 14:11:18.001
55.0, -3595.5463165696046, -10335.156063456066, 7489.264904173006, -7183.269522579852, -5618.4238932638045, -8605.689836226682, -2724.1412072350035, -2910.3535902921667, 1.006, -0.006, 0.212, 192.0, 0.0, 0.0, 0.0, 0.0, 0.0, 0.0, 0.0, 0.0, 0.0, 1.679087478001619E9, 0.0, 2023-03-17 14:11:18.001
56.0, -3612.377180144451, -10344.968479271947, 7492.48355537457, -7181.883714423623, -5615.473462995704, -8603.454661781152, -2696.9838377218057, -2904.028046611315, 1.006, -0.006, 0.212, 192.0, 0.0, 0.0, 0.0, 0.0, 0.0, 0.0, 0.0, 0.0, 0.0, 1.679087478008955E9, 0.0, 2023-03-17 14:11:18.008
57.0, -3675.4538029973273, -10410.302628314808, 7437.297098314417, -7236.444322639028, -5678.371271892938, -8657.814104296458, -2754.3607657385787, -2958.6780618045404, 1.006, -0.006, 0.212, 192.0, 0.0, 0.0, 0.0, 0.0, 0.0, 0.0, 0.0, 0.0, 0.0, 1.679087478016984E9, 0.0, 2023-03-17 14:11:18.016
58.0, -3667.563637204604, -10404.446471267518, 7429.563394732881, -7237.539558117338, -5682.931027761821, -8664.676089844239, -2760.865123375073, -2966.1211927081577, 1.006, -0.006, 0.212, 192.0, 0.0, 0.0, 0.0, 0.0, 0.0, 0.0, 0.0, 0.0, 0.0, 1.679087478017001E9, 0.0, 2023-03-17 14:11:18.017
59.0, -3622.86014829399, -10361.397011446597, 7455.2231973675725, -7209.242249636919, -5646.341222088483, -8638.815121509448, -2721.68251534492, -2930.403105068577, 1.006, -0.006, 0.212, 192.0, 0.0, 0.0, 0.0, 0.0, 0.0, 0.0, 0.0, 0.0, 0.0, 1.679087478024168E9, 0.0, 2023-03-17 14:11:18.024
60.0, -3602.900040495401, -10335.826615789725, 7488.594351839346, -7175.602874231681, -5608.700884425746, -8608.193231605677, -2704.6951895588863, -2899.2894767867897, 1.006, -0.006, 0.212, 192.0, 0.0, 0.0, 0.0, 0.0, 0.0, 0.0, 0.0, 0.0, 0.0, 1.679087478024182E9, 0.0, 2023-03-17 14:11:18.024
61.0, -3653.5714451755816, -10388.286160026331, 7451.155179876707, -7211.767996760368, -5655.907768715354, -8656.13772346231, -2766.1848385554363, -2968.1104979646802, 1.006, -0.006, 0.212, 192.0, 0.0, 0.0, 0.0, 0.0, 0.0, 0.0, 0.0, 0.0, 0.0, 1.67908747803157E9, 0.0, 2023-03-17 14:11:18.031
62.0, -3659.3605469895065, -10399.350273531709, 7436.760656447489, -7226.341334145229, -5672.69392880129, -8681.730470863637, -2772.510382236288, -2960.10857344968, 1.006, -0.006, 0.212, 192.0, 0.0, 0.0, 0.0, 0.0, 0.0, 0.0, 0.0, 0.0, 0.0, 1.67908747803158E9, 0.0, 2023-03-17 14:11:18.031
63.0, -3617.182805202342, -10358.245415478399, 7462.599273037824, -7201.150918144098, -5636.014716150131, -8641.542034332995, -2732.1431317500037, -2910.8453286701833, 1.006, -0.006, 0.212, 192.0, 0.0, 0.0, 0.0, 0.0, 0.0, 0.0, 0.0, 0.0, 0.0, 1.679087478039532E9, 0.0, 2023-03-17 14:11:18.039
64.0, -3590.3830636004286, -10330.66336282055, 7490.829526284877, -7165.27636829333, -5596.58623893097, -8619.480862555607, -2701.543593590688, -2896.4284534965104, 1.008, -0.004, 0.212, 192.0, 31.0, 128.0, 255.0, 224.0, 6.0, 160.0, 0.0, 0.0, 0.0, 1.679087478039551E9, 0.0, 2023-03-17 14:11:18.039
65.0, -3626.056447751099, -10365.777953359837, 7474.62451155478, -7180.363795800662, -5620.368495031416, -8626.85693822586, -2758.9428733519167, -2895.1097005736474, 1.008, -0.004, 0.212, 192.0, 0.0, 0.0, 0.0, 0.0, 0.0, 0.0, 0.0, 0.0, 0.0, 1.679087478047616E9, 0.0, 2023-03-17 14:11:18.047
66.0, -3664.434392980861, -10410.749663203915, 7428.8034354214, -7229.247060924418, -5671.710452045257, -8673.81795332646, -2802.84169946214, -2937.1086284051694, 1.008, -0.004, 0.212, 192.0, 0.0, 0.0, 0.0, 0.0, 0.0, 0.0, 0.0, 0.0, 0.0, 1.679087478047641E9, 0.0, 2023-03-17 14:11:18.047
67.0, -3615.305258668096, -10364.481552181429, 7463.649805027224, -7199.5862960322265, -5634.092466126975, -8645.90062450178, -2740.6814981319308, -2908.319581546734, 1.008, -0.004, 0.212, 192.0, 0.0, 0.0, 0.0, 0.0, 0.0, 0.0, 0.0, 0.0, 0.0, 1.679087478054188E9, 0.0, 2023-03-17 14:11:18.054
68.0, -3593.8699357354567, -10341.436903648008, 7487.320302405394, -7180.967292900956, -5606.689227424768, -8616.619839265328, -2704.762244792252, -2888.76180514834, 1.008, -0.004, 0.212, 192.0, 0.0, 0.0, 0.0, 0.0, 0.0, 0.0, 0.0, 0.0, 0.0, 1.679087478054203E9, 0.0, 2023-03-17 14:11:18.054
69.0, -3633.76779958818, -10375.836238364725, 7470.154162663718, -7196.7699762308575, -5628.191605590774, -8633.718923773638, -2729.3491636930903, -2910.1747763365242, 1.008, -0.004, 0.212, 192.0, 0.0, 0.0, 0.0, 0.0, 0.0, 0.0, 0.0, 0.0, 0.0, 1.679087478062157E9, 0.0, 2023-03-17 14:11:18.062
70.0, -3671.4304889953723, -10418.326904574264, 7427.507034242993, -7239.104180229209, -5676.180800936318, -8684.032700542533, -2780.981693384849, -2960.399146127599, 1.008, -0.004, 0.212, 192.0, 0.0, 0.0, 0.0, 0.0, 0.0, 0.0, 0.0, 0.0, 0.0, 1.679087478062168E9, 0.0, 2023-03-17 14:11:18.062
71.0, -3636.382953689451, -10385.24632278041, 7446.99775540802, -7220.574584075759, -5649.984556434698, -8665.614863111361, -2759.501666963299, -2939.120285406147, 1.008, -0.004, 0.212, 192.0, 0.0, 0.0, 0.0, 0.0, 0.0, 0.0, 0.0, 0.0, 0.0, 1.679087478069181E9, 0.0, 2023-03-17 14:11:18.069
72.0, -3596.7756625146467, -10343.895595538092, 7484.347520392838, -7189.125679627143, -5608.745587914656, -8628.265098126543, -2723.7612275792635, -2905.6820757010073, 1.008, -0.004, 0.212, 192.0, 0.0, 0.0, 0.0, 0.0, 0.0, 0.0, 0.0, 0.0, 0.0, 1.679087478077195E9, 0.0, 2023-03-17 14:11:18.077
73.0, -3618.926241269856, -10361.195845746499, 7485.95684599362, -7187.717519726458, -5612.612439705425, -8623.168900390732, -2714.77582630823, -2911.1135496036472, 1.008, -0.004, 0.212, 192.0, 0.0, 0.0, 0.0, 0.0, 0.0, 0.0, 0.0, 0.0, 0.0, 1.679087478077229E9, 0.0, 2023-03-17 14:11:18.077
74.0, -3662.2662737686965, -10412.046064382323, 7444.270842584472, -7228.66591556858, -5663.59676880798, -8646.951156491179, -2766.095431577615, -2958.409840871077, 1.012, -0.002, 0.20800000000000002, 192.0, 31.0, 160.0, 255.0, 240.0, 6.0, 128.0, 0.0, 0.0, 0.0, 1.679087478083899E9, 0.0, 2023-03-17 14:11:18.083
75.0, -3647.827046850568, -10399.953770632002, 7444.516711773481, -7228.956488246499, -5657.919425716332, -8651.645022826795, -2784.0438823752265, -2952.1960559125014, 1.012, -0.002, 0.20800000000000002, 192.0, 0.0, 0.0, 0.0, 0.0, 0.0, 0.0, 0.0, 0.0, 0.0, 1.679087478083932E9, 0.0, 2023-03-17 14:11:18.083
76.0, -3605.0681597075654, -10355.47379916594, 7476.747927278034, -7200.010979176877, -5617.082788596486, -8623.303010857464, -2720.810797311163, -2909.4595205139544, 1.012, -0.002, 0.20800000000000002, 192.0, 0.0, 0.0, 0.0, 0.0, 0.0, 0.0, 0.0, 0.0, 0.0, 1.679087478091906E9, 0.0, 2023-03-17 14:11:18.091
77.0, -3619.172110458864, -10362.514598669362, 7482.157049436218, -7187.6728162375475, -5608.8573466369335, -8618.966772433136, -2711.3783611510235, -2906.8220146682283, 1.012, -0.002, 0.20800000000000002, 192.0, 0.0, 0.0, 0.0, 0.0, 0.0, 0.0, 0.0, 0.0, 0.0, 1.679087478091924E9, 0.0, 2023-03-17 14:11:18.091
78.0, -3658.0417940666434, -10404.982913134447, 7446.23779609654, -7218.451168352505, -5650.722164001723, -8661.323328175942, -2751.991480826316, -2968.2893119203227, 1.012, -0.002, 0.20800000000000002, 192.0, 0.0, 0.0, 0.0, 0.0, 0.0, 0.0, 0.0, 0.0, 0.0, 1.679087478099918E9, 0.0, 2023-03-17 14:11:18.099
79.0, -3650.6433666519365, -10400.49021249893, 7440.627508238257, -7220.418121864573, -5651.325661102016, -8664.072592743945, -2759.099335563104, -2957.9628059819706, 1.012, -0.002, 0.20800000000000002, 192.0, 0.0, 0.0, 0.0, 0.0, 0.0, 0.0, 0.0, 0.0, 0.0, 1.679087478099935E9, 0.0, 2023-03-17 14:11:18.099
80.0, -3594.3169706245626, -10343.537967626808, 7485.733328549067, -7179.84970567819, -5598.866116865411, -8610.741330473582, -2714.1723292079364, -2891.354607505156, 1.012, -0.002, 0.20800000000000002, 192.0, 0.0, 0.0, 0.0, 0.0, 0.0, 0.0, 0.0, 0.0, 0.0, 1.6790874781071E9, 0.0, 2023-03-17 14:11:18.107
81.0, -3598.049711948599, -10340.520482125341, 7501.088976989863, -7163.041193847799, -5581.610570145914, -8590.065966852424, -2722.6212886120425, -2879.0387963102817, 1.012, -0.002, 0.20800000000000002, 192.0, 0.0, 0.0, 0.0, 0.0, 0.0, 0.0, 0.0, 0.0, 0.0, 1.679087478107113E9, 0.0, 2023-03-17 14:11:18.107
82.0, -3658.220608022286, -10401.54074448833, 7451.848083954822, -7211.3880171046285, -5639.300422585061, -8644.783037279014, -2771.191629313425, -2928.190282367502, 1.012, -0.002, 0.20800000000000002, 192.0, 0.0, 0.0, 0.0, 0.0, 0.0, 0.0, 0.0, 0.0, 0.0, 1.679087478114528E9, 0.0, 2023-03-17 14:11:18.114
83.0, -3663.2944540136405, -10410.235573081443, 7436.291269813928, -7230.923441758567, -5659.5734548060245, -8666.263063700564, -2760.574550697154, -2957.739288537418, 1.012, -0.002, 0.20800000000000002, 192.0, 0.0, 0.0, 0.0, 0.0, 0.0, 0.0, 0.0, 0.0, 0.0, 1.679087478114542E9, 0.0, 2023-03-17 14:11:18.114
84.0, -3592.484127579228, -10341.95099377048, 7492.081223974375, -7175.424060276039, -5595.289837752562, -8619.36910383333, -2710.618401839543, -2886.481927213899, 1.014, 0.002, 0.21, 192.0, 31.0, 176.0, 0.0, 16.0, 6.0, 144.0, 0.0, 0.0, 0.0, 1.67908747812248E9, 0.0, 2023-03-17 14:11:18.122
85.0, -3585.7115490092697, -10330.2386796759, 7509.716750349611, -7157.497961222883, -5577.72136661069, -8594.491612254575, -2692.647599297476, -2862.4538019244437, 1.014, 0.002, 0.21, 192.0, 0.0, 0.0, 0.0, 0.0, 0.0, 0.0, 0.0, 0.0, 0.0, 1.679087478122493E9, 0.0, 2023-03-17 14:11:18.122
86.0, -3641.6803171253587, -10385.872171625158, 7469.260092885505, -7197.4181768200615, -5626.202300334251, -8630.723790016627, -2759.0769838186484, -2916.723837461929, 1.014, 0.002, 0.21, 192.0, 0.0, 0.0, 0.0, 0.0, 0.0, 0.0, 0.0, 0.0, 0.0, 1.679087478129631E9, 0.0, 2023-03-17 14:11:18.129
87.0, -3663.2944540136405, -10412.046064382323, 7439.487569271037, -7230.074075469265, -5662.725050774223, -8656.964738007156, -2758.384079740534, -2952.576035568242, 1.014, 0.002, 0.21, 192.0, 0.0, 0.0, 0.0, 0.0, 0.0, 0.0, 0.0, 0.0, 0.0, 1.679087478136054E9, 0.0, 2023-03-17 14:11:18.136
88.0, -3609.180880687342, -10358.938319556513, 7473.998662710031, -7195.384168074628, -5621.01669562062, -8612.484766541096, -2707.735026804808, -2922.691753231496, 1.014, 0.002, 0.21, 192.0, 0.0, 0.0, 0.0, 0.0, 0.0, 0.0, 0.0, 0.0, 0.0, 1.679087478136104E9, 0.0, 2023-03-17 14:11:18.136
89.0, -3590.517174067161, -10334.70902856696, 7496.305703676428, -7175.558170742771, -5596.183907530774, -8590.602408719351, -2667.658348996443, -2902.7763489218178, 1.014, 0.002, 0.21, 192.0, 0.0, 0.0, 0.0, 0.0, 0.0, 0.0, 0.0, 0.0, 0.0, 1.679087478144179E9, 0.0, 2023-03-17 14:11:18.144
90.0, -3630.593851875526, -10371.902331340592, 7473.283406887461, -7191.293798839307, -5620.770826431612, -8621.85014746787, -2713.837053041107, -2920.2330613414124, 1.014, 0.002, 0.21, 192.0, 0.0, 0.0, 0.0, 0.0, 0.0, 0.0, 0.0, 0.0, 0.0, 1.679087478144199E9, 0.0, 2023-03-17 14:11:18.144
91.0, -3652.409154463906, -10398.500907242407, 7446.528368774459, -7218.80879626379, -5653.985518692198, -8658.037621741012, -2758.182914040436, -2952.4195733570546, 1.014, 0.002, 0.21, 192.0, 0.0, 0.0, 0.0, 0.0, 0.0, 0.0, 0.0, 0.0, 0.0, 1.679087478152198E9, 0.0, 2023-03-17 14:11:18.152
92.0, -3620.736732570736, -10367.72255512745, 7466.801400995422, -7209.041083936821, -5637.132303372897, -8647.08526695791, -2732.3442974501013, -2938.1368086501134, 1.014, 0.002, 0.21, 192.0, 0.0, 0.0, 0.0, 0.0, 0.0, 0.0, 0.0, 0.0, 0.0, 1.679087478152209E9, 0.0, 2023-03-17 14:11:18.152
93.0, -3576.927313438334, -10323.197880172478, 7507.3474654373495, -7165.0752025932325, -5589.187811516263, -8603.432310036696, -2692.871116742029, -2889.2088400374464, 1.014, 0.002, 0.21, 192.0, 0.0, 0.0, 0.0, 0.0, 0.0, 0.0, 0.0, 0.0, 0.0, 1.679087478159269E9, 0.0, 2023-03-17 14:11:18.159
94.0, -3608.5550318425935, -10351.741057841904, 7499.859631044821, -7171.713670696458, -5605.236364035173, -8602.873516425314, -2734.4006579399893, -2890.8405173826836, 1.016, 0.002, 0.192, 192.0, 31.0, 192.0, 0.0, 16.0, 6.0, 0.0, 0.0, 0.0, 0.0, 1.679087478159281E9, 0.0, 2023-03-17 14:11:18.159
95.0, -3670.670529683892, -10418.706884230005, 7435.173682591162, -7240.199415707519, -5676.806649781067, -8668.47588640164, -2758.741707651819, -2970.211561943479, 1.016, 0.002, 0.192, 192.0, 0.0, 0.0, 0.0, 0.0, 0.0, 0.0, 0.0, 0.0, 0.0, 1.679087478168187E9, 0.0, 2023-03-17 14:11:18.168
96.0, -3628.045753007621, -10378.227875021443, 7464.610930038802, -7209.622229292659, -5641.803817964055, -8642.61491806685, -2715.0887507306043, -2933.2641283588564, 1.016, 0.002, 0.192, 192.0, 0.0, 0.0, 0.0, 0.0, 0.0, 0.0, 0.0, 0.0, 0.0, 1.6790874781682E9, 0.0, 2023-03-17 14:11:18.168
97.0, -3581.71058675177, -10332.719723310438, 7504.799366569444, -7167.556246227771, -5592.875849351389, -8591.138850586278, -2674.6544450109536, -2885.3419882466783, 1.016, 0.002, 0.192, 192.0, 0.0, 0.0, 0.0, 0.0, 0.0, 0.0, 0.0, 0.0, 0.0, 1.679087478174682E9, 0.0, 2023-03-17 14:11:18.174
98.0, -3614.1653197008754, -10361.911101569069, 7489.4437181286485, -7173.054775363777, -5602.978837845188, -8605.645132737773, -2697.7214452888306, -2901.189375065491, 1.016, 0.002, 0.192, 192.0, 0.0, 0.0, 0.0, 0.0, 0.0, 0.0, 0.0, 0.0, 0.0, 1.679087478174697E9, 0.0, 2023-03-17 14:11:18.174
99.0, -3668.435355238361, -10418.483366785451, 7437.051229125408, -7234.365610404684, -5667.195399665285, -8662.507970632074, -2764.061422832182, -2966.881152019638, 1.016, 0.002, 0.192, 192.0, 0.0, 0.0, 0.0, 0.0, 0.0, 0.0, 0.0, 0.0, 0.0, 1.679087478182717E9, 0.0, 2023-03-17 14:11:18.182
100.0, -3646.955328816811, -10393.96350311798, 7448.741191475534, -7235.393790649628, -5659.931082717309, -8640.491502343595, -2774.097356092615, -2947.926872721538, 1.016, 0.002, 0.192, 192.0, 0.0, 0.0, 0.0, 0.0, 0.0, 0.0, 0.0, 0.0, 0.0, 1.679087478182735E9, 0.0, 2023-03-17 14:11:18.182
101.0, -3594.2052119022865, -10340.743999569893, 7488.706110561623, -7189.349197071696, -5606.018675091109, -8598.760795445538, -2727.605727625576, -2896.2049360519572, 1.016, 0.002, 0.192, 192.0, 0.0, 0.0, 0.0, 0.0, 0.0, 0.0, 0.0, 0.0, 0.0, 1.679087478188857E9, 0.0, 2023-03-17 14:11:18.188
102.0, -3613.405360389395, -10356.032592777323, 7485.442755871148, -7179.648539978092, -5601.414215733316, -8603.387606547787, -2715.938117019906, -2895.8026046517616, 1.016, 0.002, 0.192, 192.0, 0.0, 0.0, 0.0, 0.0, 0.0, 0.0, 0.0, 0.0, 0.0, 1.679087478196297E9, 0.0, 2023-03-17 14:11:18.196
103.0, -3664.3896894919503, -10409.408558536597, 7439.264051826483, -7229.045895224321, -5657.494742571681, -8661.211569453666, -2769.7834694127405, -2952.7548495238843, 1.016, 0.002, 0.192, 192.0, 0.0, 0.0, 0.0, 0.0, 0.0, 0.0, 0.0, 0.0, 0.0, 1.679087478196312E9, 0.0, 2023-03-17 14:11:18.196
104.0, -3645.9942038052327, -10392.421232750563, 7443.466179784082, -7227.481273112449, -5655.125457659418, -8660.272796186542, -2752.7737918822518, -2966.501172363898, 1.008, -0.002, 0.20800000000000002, 192.0, 31.0, 128.0, 255.0, 240.0, 6.0, 128.0, 0.0, 0.0, 0.0, 1.679087478204466E9, 0.0, 2023-03-17 14:11:18.204
105.0, -3600.3519416274958, -10347.38246767312, 7473.52927607647, -7196.7699762308575, -5616.859271151933, -8637.742237775594, -2716.9439455203947, -2916.9026514175716, 1.008, -0.002, 0.20800000000000002, 192.0, 0.0, 0.0, 0.0, 0.0, 0.0, 0.0, 0.0, 0.0, 0.0, 1.679087478204481E9, 0.0, 2023-03-17 14:11:18.204
106.0, -3594.339322369018, -10336.541871612295, 7495.970427509597, -7171.13252534062, -5590.841840605955, -8609.154356617255, -2709.8584425280624, -2874.479040441399, 1.008, -0.002, 0.20800000000000002, 192.0, 0.0, 0.0, 0.0, 0.0, 0.0, 0.0, 0.0, 0.0, 0.0, 1.679087478212332E9, 0.0, 2023-03-17 14:11:18.212
107.0, -3640.33921245804, -10387.213276292478, 7459.134752647252, -7204.57073504576, -5633.667782982324, -8642.816083766947, -2771.4598502468884, -2922.6470497425858, 1.008, -0.002, 0.20800000000000002, 192.0, 0.0, 0.0, 0.0, 0.0, 0.0, 0.0, 0.0, 0.0, 0.0, 1.679087478212343E9, 0.0, 2023-03-17 14:11:18.212
108.0, -3651.984471319255, -10404.669988712072, 7429.6304499662465, -7228.867081268679, -5658.031184438609, -8675.471982416151, -2750.0468790587042, -2956.1076111921802, 1.008, -0.002, 0.20800000000000002, 192.0, 0.0, 0.0, 0.0, 0.0, 0.0, 0.0, 0.0, 0.0, 0.0, 1.679087478218986E9, 0.0, 2023-03-17 14:11:18.218
109.0, -3601.0001422166997, -10354.378563687631, 7462.755735249011, -7196.121775641654, -5619.317963042016, -8623.347714346375, -2705.5892593370986, -2925.53042477732, 1.008, -0.002, 0.20800000000000002, 192.0, 0.0, 0.0, 0.0, 0.0, 0.0, 0.0, 0.0, 0.0, 0.0, 1.679087478218999E9, 0.0, 2023-03-17 14:11:18.218
110.0, -3597.982656715233, -10340.699296080982, 7488.9743314950865, -7184.18594410252, -5606.577468702491, -8597.531449500495, -2703.711712802853, -2913.0357996268035, 1.008, -0.002, 0.20800000000000002, 192.0, 0.0, 0.0, 0.0, 0.0, 0.0, 0.0, 0.0, 0.0, 0.0, 1.679087478227017E9, 0.0, 2023-03-17 14:11:18.227
111.0, -3640.0709915245766, -10381.804154134292, 7462.554569548914, -7203.050816422799, -5639.121608629419, -8630.768493505537, -2741.35205046559, -2939.902596462083, 1.008, -0.002, 0.20800000000000002, 192.0, 0.0, 0.0, 0.0, 0.0, 0.0, 0.0, 0.0, 0.0, 0.0, 1.679087478227036E9, 0.0, 2023-03-17 14:11:18.227
112.0, -3652.632671908459, -10401.987779377436, 7439.688734971134, -7223.457959110494, -5661.02631819562, -8671.269854458555, -2769.6940624349195, -2947.569244810253, 1.008, -0.002, 0.20800000000000002, 192.0, 0.0, 0.0, 0.0, 0.0, 0.0, 0.0, 0.0, 0.0, 0.0, 1.679087478235052E9, 0.0, 2023-03-17 14:11:18.235
113.0, -3617.607488346993, -10368.460162694475, 7464.700337016623, -7210.605706048693, -5637.758152217645, -8636.781112764014, -2760.798068141707, -2928.05617190077, 1.008, -0.002, 0.20800000000000002, 192.0, 0.0, 0.0, 0.0, 0.0, 0.0, 0.0, 0.0, 0.0, 0.0, 1.679087478235072E9, 0.0, 2023-03-17 14:11:18.235
114.0, -3590.0924909225096, -10336.608926845662, 7500.664293845212, -7179.626188233637, -5605.638695435369, -8600.973618146612, -2699.934267989906, -2899.9153256315385, 1.012, -0.004, 0.198, 192.0, 31.0, 160.0, 255.0, 224.0, 6.0, 48.0, 0.0, 0.0, 0.0, 1.679087478241628E9, 0.0, 2023-03-17 14:11:18.241
115.0, -3637.1652647453866, -10381.357119245187, 7471.741136520045, -7203.2296303784415, -5638.316945829028, -8641.76555177755, -2735.4958934182996, -2931.7442097358958, 1.012, -0.004, 0.198, 192.0, 0.0, 0.0, 0.0, 0.0, 0.0, 0.0, 0.0, 0.0, 0.0, 1.679087478241639E9, 0.0, 2023-03-17 14:11:18.241
116.0, -3660.1652097898973, -10409.408558536597, 7441.163950105185, -7235.19262494953, -5674.88439975791, -8661.636252598317, -2759.6804809189416, -2962.433154873032, 1.012, -0.004, 0.198, 192.0, 0.0, 0.0, 0.0, 0.0, 0.0, 0.0, 0.0, 0.0, 0.0, 1.679087478248703E9, 0.0, 2023-03-17 14:11:18.248
117.0, -3615.439369134828, -10367.05200279379, 7464.521523060981, -7208.348179858706, -5642.049687153064, -8625.471130069629, -2733.2607189727687, -2935.566358037753, 1.012, -0.004, 0.198, 192.0, 0.0, 0.0, 0.0, 0.0, 0.0, 0.0, 0.0, 0.0, 0.0, 1.679087478248715E9, 0.0, 2023-03-17 14:11:18.248
118.0, -3569.662996490359, -10320.403912115564, 7503.905296791232, -7161.744792669391, -5590.908895839321, -8585.863838894826, -2688.19960215087, -2896.7190261744295, 1.012, -0.004, 0.198, 192.0, 0.0, 0.0, 0.0, 0.0, 0.0, 0.0, 0.0, 0.0, 0.0, 1.679087478256706E9, 0.0, 2023-03-17 14:11:18.256
119.0, -3610.0078952321883, -10355.339688699209, 7486.985026238564, -7175.8934469096, -5612.858308894433, -8607.589734505384, -2700.96244823485, -2923.272898587334, 1.012, -0.004, 0.198, 192.0, 0.0, 0.0, 0.0, 0.0, 0.0, 0.0, 0.0, 0.0, 0.0, 1.679087478264757E9, 0.0, 2023-03-17 14:11:18.264
120.0, -3661.729831901769, -10412.426044038064, 7433.117322101274, -7232.957450504, -5677.611312581457, -8671.33690969192, -2762.809725142685, -2977.2300097024454, 1.012, -0.004, 0.198, 192.0, 0.0, 0.0, 0.0, 0.0, 0.0, 0.0, 0.0, 0.0, 0.0, 1.679087478264791E9, 0.0, 2023-03-17 14:11:18.264
121.0, -3618.9709447587666, -10372.52818018534, 7459.850008469822, -7206.4035780910945, -5646.408277321849, -8644.783037279014, -2733.417181183956, -2958.9015792490936, 1.012, -0.004, 0.198, 192.0, 0.0, 0.0, 0.0, 0.0, 0.0, 0.0, 0.0, 0.0, 0.0, 1.679087478271453E9, 0.0, 2023-03-17 14:11:18.271
122.0, -3585.018644931155, -10336.56422335675, 7489.399014639737, -7180.542609756304, -5612.098349582952, -8607.925010672214, -2704.426968625423, -2931.990078924904, 1.012, -0.004, 0.198, 192.0, 0.0, 0.0, 0.0, 0.0, 0.0, 0.0, 0.0, 0.0, 0.0, 1.679087478271474E9, 0.0, 2023-03-17 14:11:18.271
123.0, -3614.4782441232496, -10358.312470711764, 7481.374738380282, -7183.761260957869, -5617.39571301886, -8621.984257934602, -2734.1994922398917, -2908.118415846636, 1.012, -0.004, 0.198, 192.0, 0.0, 0.0, 0.0, 0.0, 0.0, 0.0, 0.0, 0.0, 0.0, 1.679087478279336E9, 0.0, 2023-03-17 14:11:18.279
124.0, -3651.8727125969785, -10397.830354908749, 7447.288328085939, -7221.267488153874, -5661.294539129083, -8667.313595689964, -2772.3315682806456, -2940.304927862278, 0.992, -0.01, 0.20800000000000002, 192.0, 31.0, 0.0, 255.0, 176.0, 6.0, 128.0, 0.0, 0.0, 0.0, 1.679087478279356E9, 0.0, 2023-03-17 14:11:18.279
125.0, -3646.0389072941434, -10394.76816591837, 7440.649859982713, -7227.391866134628, -5662.412126351849, -8672.05216551449, -2763.8826088765395, -2936.0357446713147, 0.992, -0.01, 0.20800000000000002, 192.0, 0.0, 0.0, 0.0, 0.0, 0.0, 0.0, 0.0, 0.0, 0.0, 1.679087478287301E9, 0.0, 2023-03-17 14:11:18.287
126.0, -3593.9369909688226, -10346.801322317282, 7476.435002855659, -7187.292836581807, -5613.171233316807, -8626.521662059029, -2720.028486255227, -2900.7199884319293, 0.992, -0.01, 0.20800000000000002, 192.0, 0.0, 0.0, 0.0, 0.0, 0.0, 0.0, 0.0, 0.0, 0.0, 1.679087478287628E9, 0.0, 2023-03-17 14:11:18.287
127.0, -3594.09345318001, -10343.403857160076, 7493.064700730408, -7165.7234031824355, -5594.686340652268, -8599.252533823554, -2730.578509638132, -2886.437223724988, 0.992, -0.01, 0.20800000000000002, 192.0, 0.0, 0.0, 0.0, 0.0, 0.0, 0.0, 0.0, 0.0, 0.0, 1.679087478294393E9, 0.0, 2023-03-17 14:11:18.294
128.0, -3647.7152881282914, -10403.328884044753, 7447.623604252769, -7209.957505459489, -5650.4762948127145, -8646.302955901976, -2732.8807393170287, -2942.4283435855323, 0.992, -0.01, 0.20800000000000002, 192.0, 0.0, 0.0, 0.0, 0.0, 0.0, 0.0, 0.0, 0.0, 0.0, 1.679087478294419E9, 0.0, 2023-03-17 14:11:18.294
129.0, -3639.24397697973, -10403.597104978217, 7437.632374481246, -7200.122737899153, -5648.2411203671845, -8650.929767004225, -2740.6814981319308, -2948.664480288563, 0.992, -0.01, 0.20800000000000002, 192.0, 0.0, 0.0, 0.0, 0.0, 0.0, 0.0, 0.0, 0.0, 0.0, 1.679087478301971E9, 0.0, 2023-03-17 14:11:18.301
130.0, -3589.7125112667695, -10356.09964801069, 7466.734345762056, -7164.002318859377, -5607.426834991794, -8631.103769672367, -2708.807910538663, -2913.0357996268035, 0.992, -0.01, 0.20800000000000002, 192.0, 0.0, 0.0, 0.0, 0.0, 0.0, 0.0, 0.0, 0.0, 0.0, 1.679087478301995E9, 0.0, 2023-03-17 14:11:18.301
131.0, -3582.8728774634455, -10331.915060510048, 7499.457299644626, -7164.449353748483, -5596.787404631067, -8606.69566472717, -2677.0237299232163, -2889.0076743373484, 0.992, -0.01, 0.20800000000000002, 192.0, 0.0, 0.0, 0.0, 0.0, 0.0, 0.0, 0.0, 0.0, 0.0, 1.679087478309998E9, 0.0, 2023-03-17 14:11:18.309
132.0, -3645.1671892603863, -10388.621436193162, 7459.537084047447, -7227.794197534824, -5660.020489695131, -8653.701383316682, -2739.0721725311487, -2948.5527215662864, 0.992, -0.01, 0.20800000000000002, 192.0, 0.0, 0.0, 0.0, 0.0, 0.0, 0.0, 0.0, 0.0, 0.0, 1.67908747831002E9, 0.0, 2023-03-17 14:11:18.310
133.0, -3656.857151610512, -10403.418291022575, 7443.220310595073, -7251.218825723985, -5680.1817631938175, -8660.943348520203, -2752.192646526414, -2960.734422294429, 0.992, -0.01, 0.20800000000000002, 192.0, 0.0, 0.0, 0.0, 0.0, 0.0, 0.0, 0.0, 0.0, 0.0, 1.679087478316952E9, 0.0, 2023-03-17 14:11:18.316
134.0, -3618.3674476584733, -10362.000508546891, 7472.14346792024, -7233.940927260033, -5648.218768622729, -8625.672295769727, -2712.6524105849758, -2926.223328855435, 0.998, -0.004, 0.20800000000000002, 192.0, 31.0, 48.0, 255.0, 224.0, 6.0, 128.0, 0.0, 0.0, 0.0, 1.679087478324215E9, 0.0, 2023-03-17 14:11:18.324
135.0, -3610.9019650104005, -10345.706086838973, 7492.774128052489, -7224.7096567999915, -5628.25866082414, -8600.593638490873, -2697.6990935443755, -2903.737473933396, 0.998, -0.004, 0.20800000000000002, 192.0, 0.0, 0.0, 0.0, 0.0, 0.0, 0.0, 0.0, 0.0, 0.0, 1.67908747832507E9, 0.0, 2023-03-17 14:11:18.325
136.0, -3672.369262262495, -10405.72052070147, 7448.8082467089, -7274.3752329796835, -5682.975731250731, -8647.197025680189, -2748.5716639246543, -2945.825808742739, 0.998, -0.004, 0.20800000000000002, 192.0, 0.0, 0.0, 0.0, 0.0, 0.0, 0.0, 0.0, 0.0, 0.0, 1.679087478331614E9, 0.0, 2023-03-17 14:11:18.331
137.0, -3683.075747856587, -10420.472672041973, 7432.960859890087, -7296.190535568063, -5700.968885537253, -8659.490485130607, -2767.7494606673076, -2961.114401950169, 0.998, -0.004, 0.20800000000000002, 192.0, 0.0, 0.0, 0.0, 0.0, 0.0, 0.0, 0.0, 0.0, 0.0, 1.679087478331643E9, 0.0, 2023-03-17 14:11:18.331
138.0, -3635.2206629777747, -10372.818752863259, 7468.589540551847, -7269.39079396615, -5657.382983849405, -8627.147510903778, -2746.0012133122937, -2919.3389915632, 0.998, -0.004, 0.20800000000000002, 192.0, 0.0, 0.0, 0.0, 0.0, 0.0, 0.0, 0.0, 0.0, 0.0, 1.679087478339488E9, 0.0, 2023-03-17 14:11:18.339
139.0, -3608.398569631406, -10340.296964680787, 7502.7653578240115, -7237.539558117338, -5621.642544465369, -8585.886190639281, -2723.7835793237186, -2889.2311917819015, 0.998, -0.004, 0.20800000000000002, 192.0, 0.0, 0.0, 0.0, 0.0, 0.0, 0.0, 0.0, 0.0, 0.0, 1.679087478339503E9, 0.0, 2023-03-17 14:11:18.339
140.0, -3653.8173143645904, -10381.96061634548, 7474.177476665674, -7259.801895594824, -5654.946643703776, -8613.915278186236, -2715.9157652754507, -2920.724799719429, 0.998, -0.004, 0.20800000000000002, 192.0, 0.0, 0.0, 0.0, 0.0, 0.0, 0.0, 0.0, 0.0, 0.0, 1.679087478347726E9, 0.0, 2023-03-17 14:11:18.347
141.0, -3680.684111199869, -10417.186965607043, 7437.18533959214, -7282.913599361611, -5689.882420287421, -8653.723735061138, -2750.8515418590955, -2951.2349309009232, 0.998, -0.004, 0.20800000000000002, 192.0, 0.0, 0.0, 0.0, 0.0, 0.0, 0.0, 0.0, 0.0, 0.0, 1.679087478347749E9, 0.0, 2023-03-17 14:11:18.347
142.0, -3651.537436430149, -10390.364872260676, 7453.479761300059, -7268.139096276653, -5672.336300890005, -8645.207720423665, -2733.148960250492, -2936.8180557272503, 0.998, -0.004, 0.20800000000000002, 192.0, 0.0, 0.0, 0.0, 0.0, 0.0, 0.0, 0.0, 0.0, 0.0, 1.679087478354197E9, 0.0, 2023-03-17 14:11:18.354
143.0, -3620.602622104004, -10357.440752678009, 7482.581732580868, -7243.865101798189, -5639.434533051794, -8611.32247582942, -2709.67962857242, -2914.5780699942197, 0.998, -0.004, 0.20800000000000002, 192.0, 0.0, 0.0, 0.0, 0.0, 0.0, 0.0, 0.0, 0.0, 0.0, 1.679087478354216E9, 0.0, 2023-03-17 14:11:18.354
144.0, -3640.115695013487, -10373.824581363748, 7482.447622114137, -7236.62313659467, -5638.473408040215, -8616.619839265328, -2731.5843381386208, -2922.915270676049, 1.004, -0.004, 0.212, 192.0, 31.0, 96.0, 255.0, 224.0, 6.0, 160.0, 0.0, 0.0, 0.0, 1.679087478362242E9, 0.0, 2023-03-17 14:11:18.362
